[DEFAULT]

version = diffpy.pdfgetx-2.2.1

# input and output specifications
dataformat = QA
inputfile = bf9_acc_r01.xyd
backgroundfiles = emptycap.xyd
outputtype = sq

# PDF calculation setup
mode = xray
composition = AlOOH
bgscales = 0.5
rpoly = 1.13
qmaxinst = 20.396
qmin = 0.406
qmax = 15
rmin = 0
rmax = 300
rstep = 0.01

# End of config --------------------------------------------------------------

#### start data
#S 1
#L Q(Ã…$^{-1}$)  S(a.u.)
0.408095 1.53685
0.41044 1.52866
0.412785 1.5206
0.415131 1.51103
0.417476 1.49882
0.419821 1.49316
0.422167 1.48759
0.424512 1.48135
0.426857 1.47461
0.429203 1.4686
0.431548 1.4633
0.433894 1.4556
0.436239 1.44529
0.438584 1.43486
0.44093 1.43137
0.443275 1.42279
0.44562 1.41984
0.447966 1.41887
0.450311 1.41582
0.452657 1.40701
0.455002 1.3991
0.457347 1.39308
0.459693 1.38784
0.462038 1.38186
0.464383 1.37283
0.466729 1.36822
0.469074 1.36508
0.47142 1.36155
0.473765 1.35608
0.47611 1.34742
0.478456 1.34324
0.480801 1.33965
0.483146 1.33458
0.485492 1.32733
0.487837 1.32086
0.490182 1.31689
0.492528 1.31405
0.494873 1.30972
0.497219 1.30326
0.499564 1.30323
0.501909 1.30144
0.504255 1.29722
0.5066 1.29233
0.508945 1.28839
0.511291 1.28379
0.513636 1.28015
0.515982 1.27745
0.518327 1.2762
0.520672 1.27589
0.523018 1.26953
0.525363 1.26323
0.527708 1.26068
0.530054 1.25873
0.532399 1.25356
0.534745 1.25198
0.53709 1.2484
0.539435 1.24609
0.541781 1.24343
0.544126 1.23813
0.546471 1.23733
0.548817 1.23419
0.551162 1.22997
0.553507 1.22841
0.555853 1.23276
0.558198 1.22721
0.560544 1.2223
0.562889 1.22045
0.565234 1.21948
0.56758 1.21551
0.569925 1.21434
0.57227 1.21504
0.574616 1.21303
0.576961 1.20903
0.579307 1.20655
0.581652 1.20431
0.583997 1.20086
0.586343 1.19902
0.588688 1.19819
0.591033 1.19561
0.593379 1.19522
0.595724 1.19366
0.59807 1.1927
0.600415 1.19204
0.60276 1.18978
0.605106 1.18727
0.607451 1.1853
0.609796 1.183
0.612142 1.18139
0.614487 1.18334
0.616832 1.18487
0.619178 1.18213
0.621523 1.17893
0.623869 1.17639
0.626214 1.17274
0.628559 1.17224
0.630905 1.17263
0.63325 1.17096
0.635595 1.16801
0.637941 1.16947
0.640286 1.16706
0.642632 1.16574
0.644977 1.16702
0.647322 1.16912
0.649668 1.16528
0.652013 1.16713
0.654358 1.16776
0.656704 1.16784
0.659049 1.16736
0.661395 1.16451
0.66374 1.1633
0.666085 1.1627
0.668431 1.16163
0.670776 1.16029
0.673121 1.1616
0.675467 1.16229
0.677812 1.16411
0.680158 1.16479
0.682503 1.16361
0.684848 1.16417
0.687194 1.16534
0.689539 1.16831
0.691884 1.17028
0.69423 1.1695
0.696575 1.16799
0.69892 1.16918
0.701266 1.16817
0.703611 1.16728
0.705957 1.16789
0.708302 1.16516
0.710647 1.16535
0.712993 1.169
0.715338 1.17355
0.717683 1.17598
0.720029 1.17323
0.722374 1.17504
0.72472 1.17634
0.727065 1.1765
0.72941 1.17606
0.731756 1.17716
0.734101 1.17922
0.736446 1.18182
0.738792 1.185
0.741137 1.18822
0.743483 1.18758
0.745828 1.18857
0.748173 1.19364
0.750519 1.19776
0.752864 1.19581
0.755209 1.19521
0.757555 1.19787
0.7599 1.20211
0.762245 1.20421
0.764591 1.20169
0.766936 1.20715
0.769282 1.20972
0.771627 1.21187
0.773972 1.21358
0.776318 1.21453
0.778663 1.21924
0.781008 1.22218
0.783354 1.22396
0.785699 1.22606
0.788045 1.22985
0.79039 1.22948
0.792735 1.23227
0.795081 1.23763
0.797426 1.24293
0.799771 1.24498
0.802117 1.24909
0.804462 1.25254
0.806808 1.25474
0.809153 1.25646
0.811498 1.25935
0.813844 1.26716
0.816189 1.27219
0.818534 1.27403
0.82088 1.27635
0.823225 1.28511
0.82557 1.2877
0.827916 1.29154
0.830261 1.29615
0.832607 1.30192
0.834952 1.30972
0.837297 1.31356
0.839643 1.31306
0.841988 1.31619
0.844333 1.32523
0.846679 1.33754
0.849024 1.33562
0.85137 1.33841
0.853715 1.34342
0.85606 1.34883
0.858406 1.35341
0.860751 1.35795
0.863096 1.36755
0.865442 1.37793
0.867787 1.38458
0.870133 1.38239
0.872478 1.38792
0.874823 1.39276
0.877169 1.39935
0.879514 1.40685
0.881859 1.40986
0.884205 1.41726
0.88655 1.42232
0.888896 1.42569
0.891241 1.42977
0.893586 1.4396
0.895932 1.44452
0.898277 1.45038
0.900622 1.45587
0.902968 1.46016
0.905313 1.46364
0.907658 1.47045
0.910004 1.47984
0.912349 1.48577
0.914695 1.48602
0.91704 1.48585
0.919385 1.49194
0.921731 1.49607
0.924076 1.49915
0.926421 1.50154
0.928767 1.50089
0.931112 1.50298
0.933458 1.5125
0.935803 1.52138
0.938148 1.52338
0.940494 1.51897
0.942839 1.52156
0.945184 1.52251
0.94753 1.5222
0.949875 1.52244
0.952221 1.52648
0.954566 1.52882
0.956911 1.52729
0.959257 1.52374
0.961602 1.52033
0.963947 1.51854
0.966293 1.5162
0.968638 1.51561
0.970983 1.51582
0.973329 1.51524
0.975674 1.51167
0.97802 1.5017
0.980365 1.49276
0.98271 1.48729
0.985056 1.48568
0.987401 1.48395
0.989746 1.47223
0.992092 1.46488
0.994437 1.46154
0.996783 1.458
0.999128 1.44621
1.00147 1.43628
1.00382 1.42485
1.00616 1.41458
1.00851 1.40797
1.01085 1.39872
1.0132 1.38732
1.01555 1.3767
1.01789 1.36586
1.02024 1.35402
1.02258 1.34898
1.02493 1.33425
1.02727 1.31815
1.02962 1.30535
1.03196 1.29752
1.03431 1.28104
1.03665 1.27487
1.039 1.265
1.04134 1.25027
1.04369 1.23464
1.04604 1.22744
1.04838 1.21562
1.05073 1.2045
1.05307 1.19356
1.05542 1.18118
1.05776 1.1777
1.06011 1.16461
1.06245 1.15441
1.0648 1.14879
1.06714 1.14435
1.06949 1.13297
1.07183 1.12476
1.07418 1.11573
1.07653 1.10645
1.07887 1.09926
1.08122 1.08863
1.08356 1.08371
1.08591 1.07915
1.08825 1.07308
1.0906 1.06551
1.09294 1.05742
1.09529 1.05086
1.09763 1.04426
1.09998 1.03876
1.10232 1.03685
1.10467 1.03139
1.10701 1.02577
1.10936 1.02268
1.11171 1.01957
1.11405 1.01056
1.1164 1.00231
1.11874 0.9987
1.12109 0.994178
1.12343 0.988441
1.12578 0.985066
1.12812 0.982837
1.13047 0.978927
1.13281 0.97564
1.13516 0.972533
1.1375 0.966864
1.13985 0.961179
1.1422 0.957688
1.14454 0.954828
1.14689 0.951648
1.14923 0.94774
1.15158 0.946292
1.15392 0.943587
1.15627 0.941998
1.15861 0.940612
1.16096 0.934994
1.1633 0.930564
1.16565 0.926234
1.16799 0.924287
1.17034 0.923593
1.17269 0.91893
1.17503 0.915947
1.17738 0.913547
1.17972 0.91312
1.18207 0.912895
1.18441 0.906836
1.18676 0.904338
1.1891 0.90125
1.19145 0.900849
1.19379 0.901613
1.19614 0.894775
1.19848 0.89203
1.20083 0.891999
1.20318 0.890656
1.20552 0.886259
1.20787 0.880572
1.21021 0.879877
1.21256 0.878107
1.2149 0.876209
1.21725 0.87509
1.21959 0.875138
1.22194 0.874719
1.22428 0.872734
1.22663 0.870561
1.22897 0.869072
1.23132 0.867995
1.23366 0.866442
1.23601 0.86507
1.23836 0.862873
1.2407 0.859599
1.24305 0.856708
1.24539 0.853433
1.24774 0.852279
1.25008 0.851631
1.25243 0.85044
1.25477 0.849623
1.25712 0.85017
1.25946 0.847734
1.26181 0.844705
1.26415 0.843087
1.2665 0.842597
1.26885 0.842353
1.27119 0.842508
1.27354 0.842533
1.27588 0.84222
1.27823 0.842402
1.28057 0.840548
1.28292 0.837878
1.28526 0.836415
1.28761 0.836595
1.28995 0.834016
1.2923 0.833643
1.29464 0.832733
1.29699 0.831453
1.29934 0.829969
1.30168 0.827166
1.30403 0.824005
1.30637 0.822877
1.30872 0.823984
1.31106 0.826136
1.31341 0.824582
1.31575 0.826116
1.3181 0.825313
1.32044 0.824378
1.32279 0.824741
1.32513 0.820251
1.32748 0.815514
1.32983 0.816243
1.33217 0.817673
1.33452 0.815376
1.33686 0.813755
1.33921 0.812901
1.34155 0.809513
1.3439 0.807365
1.34624 0.809534
1.34859 0.810346
1.35093 0.809852
1.35328 0.808029
1.35562 0.80682
1.35797 0.80755
1.36032 0.806675
1.36266 0.806408
1.36501 0.807214
1.36735 0.807435
1.3697 0.805833
1.37204 0.805808
1.37439 0.803252
1.37673 0.799851
1.37908 0.79762
1.38142 0.798225
1.38377 0.801126
1.38611 0.800498
1.38846 0.798922
1.3908 0.798062
1.39315 0.79852
1.3955 0.795623
1.39784 0.793573
1.40019 0.793526
1.40253 0.795014
1.40488 0.796498
1.40722 0.792813
1.40957 0.791213
1.41191 0.788623
1.41426 0.787665
1.4166 0.791205
1.41895 0.792116
1.42129 0.789288
1.42364 0.788422
1.42599 0.790402
1.42833 0.793758
1.43068 0.791062
1.43302 0.789808
1.43537 0.786009
1.43771 0.783577
1.44006 0.787151
1.4424 0.785032
1.44475 0.786887
1.44709 0.78702
1.44944 0.785147
1.45178 0.78313
1.45413 0.784473
1.45648 0.785276
1.45882 0.784413
1.46117 0.782119
1.46351 0.779376
1.46586 0.778649
1.4682 0.781003
1.47055 0.779823
1.47289 0.777168
1.47524 0.778026
1.47758 0.780833
1.47993 0.779572
1.48227 0.779231
1.48462 0.779829
1.48697 0.779586
1.48931 0.779785
1.49166 0.775526
1.494 0.774352
1.49635 0.775807
1.49869 0.776238
1.50104 0.776931
1.50338 0.776017
1.50573 0.775043
1.50807 0.774321
1.51042 0.773639
1.51276 0.773104
1.51511 0.769893
1.51745 0.770029
1.5198 0.77222
1.52215 0.77196
1.52449 0.77069
1.52684 0.770966
1.52918 0.772267
1.53153 0.772849
1.53387 0.770864
1.53622 0.773336
1.53856 0.773761
1.54091 0.773234
1.54325 0.7722
1.5456 0.770857
1.54794 0.769759
1.55029 0.769637
1.55264 0.770855
1.55498 0.771558
1.55733 0.769035
1.55967 0.768052
1.56202 0.769068
1.56436 0.767245
1.56671 0.764694
1.56905 0.766946
1.5714 0.768171
1.57374 0.768059
1.57609 0.766535
1.57843 0.766058
1.58078 0.769964
1.58313 0.767534
1.58547 0.767143
1.58782 0.765877
1.59016 0.763218
1.59251 0.760553
1.59485 0.76925
1.5972 0.769216
1.59954 0.76503
1.60189 0.761066
1.60423 0.761517
1.60658 0.762337
1.60892 0.761167
1.61127 0.760951
1.61362 0.761886
1.61596 0.762394
1.61831 0.760247
1.62065 0.762173
1.623 0.763018
1.62534 0.761628
1.62769 0.759585
1.63003 0.76275
1.63238 0.762544
1.63472 0.763274
1.63707 0.765014
1.63941 0.765134
1.64176 0.764001
1.6441 0.767985
1.64645 0.768845
1.6488 0.765827
1.65114 0.763252
1.65349 0.764607
1.65583 0.763874
1.65818 0.762255
1.66052 0.760577
1.66287 0.759635
1.66521 0.765256
1.66756 0.764143
1.6699 0.763344
1.67225 0.764911
1.67459 0.767419
1.67694 0.7673
1.67929 0.767947
1.68163 0.768238
1.68398 0.767682
1.68632 0.766398
1.68867 0.769912
1.69101 0.770775
1.69336 0.77017
1.6957 0.768326
1.69805 0.765067
1.70039 0.767359
1.70274 0.771292
1.70508 0.774315
1.70743 0.775699
1.70978 0.775954
1.71212 0.772858
1.71447 0.773986
1.71681 0.775072
1.71916 0.774808
1.7215 0.773957
1.72385 0.772612
1.72619 0.775979
1.72854 0.778308
1.73088 0.778632
1.73323 0.779325
1.73557 0.778712
1.73792 0.77872
1.74027 0.778435
1.74261 0.777421
1.74496 0.775733
1.7473 0.778757
1.74965 0.778393
1.75199 0.778849
1.75434 0.780671
1.75668 0.78183
1.75903 0.782826
1.76137 0.785802
1.76372 0.787075
1.76606 0.786658
1.76841 0.78709
1.77075 0.784897
1.7731 0.788614
1.77545 0.793106
1.77779 0.795814
1.78014 0.796143
1.78248 0.800465
1.78483 0.801089
1.78717 0.801773
1.78952 0.802902
1.79186 0.802705
1.79421 0.806141
1.79655 0.809266
1.7989 0.810987
1.80124 0.811582
1.80359 0.81248
1.80594 0.819369
1.80828 0.824153
1.81063 0.82645
1.81297 0.827139
1.81532 0.828115
1.81766 0.832641
1.82001 0.838928
1.82235 0.844857
1.8247 0.849716
1.82704 0.853617
1.82939 0.853446
1.83173 0.858995
1.83408 0.867758
1.83643 0.87605
1.83877 0.879527
1.84112 0.882146
1.84346 0.888191
1.84581 0.894007
1.84815 0.899337
1.8505 0.905966
1.85284 0.911984
1.85519 0.919632
1.85753 0.928333
1.85988 0.936341
1.86222 0.941284
1.86457 0.94505
1.86692 0.949025
1.86926 0.955644
1.87161 0.965943
1.87395 0.979818
1.8763 0.993156
1.87864 1.00526
1.88099 1.01684
1.88333 1.02798
1.88568 1.03847
1.88802 1.0482
1.89037 1.06195
1.89271 1.07541
1.89506 1.08634
1.8974 1.09396
1.89975 1.10315
1.9021 1.11698
1.90444 1.13174
1.90679 1.14729
1.90913 1.16506
1.91148 1.17918
1.91382 1.19118
1.91617 1.20352
1.91851 1.21886
1.92086 1.23879
1.9232 1.24609
1.92555 1.25492
1.92789 1.27084
1.93024 1.28977
1.93259 1.30324
1.93493 1.31625
1.93728 1.3314
1.93962 1.34478
1.94197 1.35341
1.94431 1.35679
1.94666 1.38175
1.949 1.39272
1.95135 1.39615
1.95369 1.40106
1.95604 1.4163
1.95838 1.42697
1.96073 1.43475
1.96308 1.43657
1.96542 1.43503
1.96777 1.43504
1.97011 1.43593
1.97246 1.44522
1.9748 1.44827
1.97715 1.44179
1.97949 1.42827
1.98184 1.41773
1.98418 1.41637
1.98653 1.4184
1.98887 1.41051
1.99122 1.38151
1.99357 1.3718
1.99591 1.36477
1.99826 1.34268
2.0006 1.31754
2.00295 1.30827
2.00529 1.28875
2.00764 1.27259
2.00998 1.26044
2.01233 1.24847
2.01467 1.23219
2.01702 1.21615
2.01936 1.18586
2.02171 1.16491
2.02405 1.14916
2.0264 1.12809
2.02875 1.11564
2.03109 1.10775
2.03344 1.09023
2.03578 1.06922
2.03813 1.05567
2.04047 1.04794
2.04282 1.02911
2.04516 1.01551
2.04751 1.00466
2.04985 0.990492
2.0522 0.980257
2.05454 0.972421
2.05689 0.958128
2.05924 0.941711
2.06158 0.929289
2.06393 0.915497
2.06627 0.906489
2.06862 0.901141
2.07096 0.893293
2.07331 0.878672
2.07565 0.869904
2.078 0.863333
2.08034 0.853677
2.08269 0.84585
2.08503 0.843533
2.08738 0.832972
2.08973 0.831628
2.09207 0.82633
2.09442 0.818868
2.09676 0.813627
2.09911 0.812363
2.10145 0.809507
2.1038 0.804644
2.10614 0.799598
2.10849 0.795297
2.11083 0.787041
2.11318 0.785571
2.11552 0.785582
2.11787 0.782549
2.12022 0.774891
2.12256 0.771092
2.12491 0.768853
2.12725 0.767352
2.1296 0.764971
2.13194 0.761076
2.13429 0.758652
2.13663 0.756697
2.13898 0.754401
2.14132 0.753347
2.14367 0.753316
2.14601 0.747534
2.14836 0.743092
2.1507 0.74211
2.15305 0.742847
2.1554 0.743414
2.15774 0.742959
2.16009 0.736572
2.16243 0.735029
2.16478 0.734974
2.16712 0.733387
2.16947 0.731905
2.17181 0.731675
2.17416 0.733323
2.1765 0.733661
2.17885 0.731651
2.18119 0.73178
2.18354 0.733087
2.18589 0.732486
2.18823 0.731768
2.19058 0.731562
2.19292 0.729332
2.19527 0.725796
2.19761 0.723456
2.19996 0.722411
2.2023 0.722227
2.20465 0.721846
2.20699 0.722676
2.20934 0.72237
2.21168 0.724215
2.21403 0.727386
2.21638 0.723837
2.21872 0.722681
2.22107 0.723105
2.22341 0.721104
2.22576 0.717195
2.2281 0.718651
2.23045 0.718119
2.23279 0.717383
2.23514 0.716745
2.23748 0.716
2.23983 0.714334
2.24217 0.713174
2.24452 0.710367
2.24687 0.709636
2.24921 0.712186
2.25156 0.71624
2.2539 0.713545
2.25625 0.711432
2.25859 0.710993
2.26094 0.71091
2.26328 0.707497
2.26563 0.703187
2.26797 0.701853
2.27032 0.702612
2.27266 0.704292
2.27501 0.705468
2.27735 0.705982
2.2797 0.707338
2.28205 0.707001
2.28439 0.705908
2.28674 0.707518
2.28908 0.705373
2.29143 0.704023
2.29377 0.703412
2.29612 0.701718
2.29846 0.696397
2.30081 0.697686
2.30315 0.701251
2.3055 0.703078
2.30784 0.701609
2.31019 0.697289
2.31254 0.698679
2.31488 0.698744
2.31723 0.699222
2.31957 0.700909
2.32192 0.703963
2.32426 0.706836
2.32661 0.703103
2.32895 0.703581
2.3313 0.706845
2.33364 0.706433
2.33599 0.7034
2.33833 0.701047
2.34068 0.70168
2.34303 0.704302
2.34537 0.706565
2.34772 0.706883
2.35006 0.710796
2.35241 0.709495
2.35475 0.705361
2.3571 0.70428
2.35944 0.70891
2.36179 0.707378
2.36413 0.70583
2.36648 0.704646
2.36882 0.703244
2.37117 0.705125
2.37352 0.704308
2.37586 0.70505
2.37821 0.707512
2.38055 0.709594
2.3829 0.703061
2.38524 0.705584
2.38759 0.708342
2.38993 0.709708
2.39228 0.709472
2.39462 0.706982
2.39697 0.707679
2.39931 0.712298
2.40166 0.715124
2.404 0.712259
2.40635 0.709605
2.4087 0.710031
2.41104 0.709209
2.41339 0.706741
2.41573 0.703836
2.41808 0.704734
2.42042 0.704309
2.42277 0.708212
2.42511 0.712517
2.42746 0.713794
2.4298 0.71227
2.43215 0.710045
2.43449 0.709647
2.43684 0.710816
2.43919 0.712452
2.44153 0.712267
2.44388 0.716195
2.44622 0.715298
2.44857 0.71823
2.45091 0.724944
2.45326 0.718415
2.4556 0.71861
2.45795 0.717949
2.46029 0.720225
2.46264 0.72558
2.46498 0.728242
2.46733 0.72699
2.46968 0.72758
2.47202 0.728686
2.47437 0.731137
2.47671 0.738596
2.47906 0.734457
2.4814 0.737969
2.48375 0.741508
2.48609 0.742476
2.48844 0.743601
2.49078 0.742669
2.49313 0.744288
2.49547 0.747928
2.49782 0.754126
2.50017 0.763908
2.50251 0.763239
2.50486 0.765074
2.5072 0.767604
2.50955 0.770661
2.51189 0.774906
2.51424 0.774709
2.51658 0.782403
2.51893 0.786773
2.52127 0.789189
2.52362 0.797193
2.52596 0.802553
2.52831 0.808584
2.53066 0.813973
2.533 0.819748
2.53535 0.827472
2.53769 0.832771
2.54004 0.838827
2.54238 0.846389
2.54473 0.855305
2.54707 0.865053
2.54942 0.875519
2.55176 0.880727
2.55411 0.88601
2.55645 0.892909
2.5588 0.902083
2.56114 0.91615
2.56349 0.92583
2.56584 0.942036
2.56818 0.957077
2.57053 0.963973
2.57287 0.980952
2.57522 0.989896
2.57756 0.996781
2.57991 1.00764
2.58225 1.02519
2.5846 1.04034
2.58694 1.04965
2.58929 1.06242
2.59163 1.07987
2.59398 1.10018
2.59633 1.11672
2.59867 1.12939
2.60102 1.14196
2.60336 1.15778
2.60571 1.17644
2.60805 1.18899
2.6104 1.20173
2.61274 1.21835
2.61509 1.23576
2.61743 1.25337
2.61978 1.27641
2.62212 1.29204
2.62447 1.31286
2.62682 1.33684
2.62916 1.361
2.63151 1.38224
2.63385 1.40012
2.6362 1.4162
2.63854 1.42948
2.64089 1.44041
2.64323 1.45133
2.64558 1.46841
2.64792 1.48389
2.65027 1.49614
2.65261 1.50693
2.65496 1.52104
2.65731 1.53579
2.65965 1.54429
2.662 1.54464
2.66434 1.54211
2.66669 1.54663
2.66903 1.54378
2.67138 1.54355
2.67372 1.5385
2.67607 1.53185
2.67841 1.53208
2.68076 1.52882
2.6831 1.51995
2.68545 1.50245
2.68779 1.48576
2.69014 1.48181
2.69249 1.46657
2.69483 1.44646
2.69718 1.43265
2.69952 1.42257
2.70187 1.4085
2.70421 1.3824
2.70656 1.36693
2.7089 1.35014
2.71125 1.3297
2.71359 1.30754
2.71594 1.2936
2.71828 1.28003
2.72063 1.26336
2.72298 1.24279
2.72532 1.22045
2.72767 1.20713
2.73001 1.18397
2.73236 1.16405
2.7347 1.14895
2.73705 1.13754
2.73939 1.12653
2.74174 1.11384
2.74408 1.09521
2.74643 1.07425
2.74877 1.05611
2.75112 1.04749
2.75347 1.03994
2.75581 1.03455
2.75816 1.02934
2.7605 1.02016
2.76285 0.999182
2.76519 0.988581
2.76754 0.980639
2.76988 0.970972
2.77223 0.959755
2.77457 0.952969
2.77692 0.943978
2.77926 0.936211
2.78161 0.926988
2.78396 0.915568
2.7863 0.903369
2.78865 0.899644
2.79099 0.892487
2.79334 0.881524
2.79568 0.870448
2.79803 0.865815
2.80037 0.866483
2.80272 0.857475
2.80506 0.852548
2.80741 0.850013
2.80975 0.84082
2.8121 0.83998
2.81444 0.834096
2.81679 0.827591
2.81914 0.820863
2.82148 0.813302
2.82383 0.810507
2.82617 0.808681
2.82852 0.805207
2.83086 0.79954
2.83321 0.792772
2.83555 0.791317
2.8379 0.786298
2.84024 0.783869
2.84259 0.781471
2.84493 0.77652
2.84728 0.775271
2.84963 0.773565
2.85197 0.768499
2.85432 0.763318
2.85666 0.761197
2.85901 0.761958
2.86135 0.759973
2.8637 0.759099
2.86604 0.758516
2.86839 0.756239
2.87073 0.74871
2.87308 0.74363
2.87542 0.742451
2.87777 0.741749
2.88012 0.740111
2.88246 0.740115
2.88481 0.744998
2.88715 0.740655
2.8895 0.736926
2.89184 0.737584
2.89419 0.737818
2.89653 0.735428
2.89888 0.732745
2.90122 0.735457
2.90357 0.74076
2.90591 0.738648
2.90826 0.743799
2.91061 0.737533
2.91295 0.734643
2.9153 0.735702
2.91764 0.732709
2.91999 0.736365
2.92233 0.735213
2.92468 0.730817
2.92702 0.72657
2.92937 0.726004
2.93171 0.724301
2.93406 0.725952
2.9364 0.726902
2.93875 0.726014
2.94109 0.723937
2.94344 0.725915
2.94579 0.72583
2.94813 0.724965
2.95048 0.723946
2.95282 0.723938
2.95517 0.729159
2.95751 0.724674
2.95986 0.720518
2.9622 0.719278
2.96455 0.721817
2.96689 0.728013
2.96924 0.728554
2.97158 0.725857
2.97393 0.72349
2.97628 0.723642
2.97862 0.725372
2.98097 0.730997
2.98331 0.729248
2.98566 0.725533
2.988 0.72422
2.99035 0.72646
2.99269 0.731621
2.99504 0.729876
2.99738 0.729414
2.99973 0.731587
3.00207 0.729967
3.00442 0.736108
3.00677 0.734745
3.00911 0.733038
3.01146 0.732723
3.0138 0.731514
3.01615 0.734231
3.01849 0.736745
3.02084 0.738347
3.02318 0.739772
3.02553 0.742038
3.02787 0.740109
3.03022 0.744522
3.03256 0.744903
3.03491 0.742577
3.03726 0.743182
3.0396 0.750569
3.04195 0.756779
3.04429 0.759725
3.04664 0.761302
3.04898 0.763152
3.05133 0.76055
3.05367 0.764121
3.05602 0.766739
3.05836 0.767387
3.06071 0.768391
3.06305 0.779044
3.0654 0.779933
3.06774 0.779678
3.07009 0.779643
3.07244 0.78098
3.07478 0.78609
3.07713 0.794659
3.07947 0.801726
3.08182 0.805734
3.08416 0.807062
3.08651 0.808457
3.08885 0.810081
3.0912 0.81765
3.09354 0.822325
3.09589 0.824331
3.09823 0.832788
3.10058 0.836495
3.10293 0.836639
3.10527 0.840992
3.10762 0.849931
3.10996 0.858069
3.11231 0.85104
3.11465 0.855613
3.117 0.867513
3.11934 0.875768
3.12169 0.8701
3.12403 0.874573
3.12638 0.877188
3.12872 0.886416
3.13107 0.893529
3.13342 0.889491
3.13576 0.89235
3.13811 0.901388
3.14045 0.907744
3.1428 0.907662
3.14514 0.903126
3.14749 0.911572
3.14983 0.91611
3.15218 0.918158
3.15452 0.919831
3.15687 0.922508
3.15921 0.925661
3.16156 0.925659
3.16391 0.92481
3.16625 0.923094
3.1686 0.922525
3.17094 0.928402
3.17329 0.933362
3.17563 0.932483
3.17798 0.930692
3.18032 0.931332
3.18267 0.935655
3.18501 0.939197
3.18736 0.940785
3.1897 0.941064
3.19205 0.942416
3.19439 0.947388
3.19674 0.94233
3.19909 0.937634
3.20143 0.938856
3.20378 0.946031
3.20612 0.95554
3.20847 0.956602
3.21081 0.957887
3.21316 0.959745
3.2155 0.962927
3.21785 0.967413
3.22019 0.969082
3.22254 0.973606
3.22488 0.980238
3.22723 0.988071
3.22958 0.996723
3.23192 1.00779
3.23427 1.01549
3.23661 1.02422
3.23896 1.03592
3.2413 1.0491
3.24365 1.0561
3.24599 1.05835
3.24834 1.05754
3.25068 1.06772
3.25303 1.08824
3.25537 1.0991
3.25772 1.10763
3.26007 1.11002
3.26241 1.11709
3.26476 1.13107
3.2671 1.14655
3.26945 1.15954
3.27179 1.17182
3.27414 1.18913
3.27648 1.20834
3.27883 1.22276
3.28117 1.241
3.28352 1.24818
3.28586 1.2544
3.28821 1.26387
3.29056 1.27859
3.2929 1.30042
3.29525 1.3242
3.29759 1.34399
3.29994 1.36185
3.30228 1.37886
3.30463 1.38581
3.30697 1.41098
3.30932 1.4322
3.31166 1.45369
3.31401 1.47801
3.31635 1.49674
3.3187 1.52953
3.32104 1.55076
3.32339 1.57176
3.32574 1.59583
3.32808 1.61203
3.33043 1.64726
3.33277 1.67936
3.33512 1.70196
3.33746 1.72323
3.33981 1.76279
3.34215 1.80523
3.3445 1.83298
3.34684 1.86482
3.34919 1.90935
3.35153 1.96576
3.35388 1.9991
3.35623 2.05295
3.35857 2.09664
3.36092 2.13203
3.36326 2.16982
3.36561 2.20417
3.36795 2.24757
3.3703 2.29301
3.37264 2.3334
3.37499 2.3668
3.37733 2.40811
3.37968 2.4399
3.38202 2.47834
3.38437 2.50797
3.38672 2.52044
3.38906 2.52844
3.39141 2.53473
3.39375 2.53406
3.3961 2.51617
3.39844 2.48029
3.40079 2.43747
3.40313 2.40398
3.40548 2.35572
3.40782 2.29373
3.41017 2.22868
3.41251 2.17631
3.41486 2.1067
3.41721 2.04286
3.41955 1.97324
3.4219 1.90008
3.42424 1.833
3.42659 1.78633
3.42893 1.73038
3.43128 1.677
3.43362 1.62565
3.43597 1.57474
3.43831 1.53474
3.44066 1.48922
3.443 1.44856
3.44535 1.40891
3.44769 1.36923
3.45004 1.34237
3.45239 1.3269
3.45473 1.29664
3.45708 1.26298
3.45942 1.23482
3.46177 1.21212
3.46411 1.19347
3.46646 1.17985
3.4688 1.16317
3.47115 1.14512
3.47349 1.13646
3.47584 1.12778
3.47818 1.1156
3.48053 1.10527
3.48288 1.09913
3.48522 1.09685
3.48757 1.08946
3.48991 1.09239
3.49226 1.08728
3.4946 1.07594
3.49695 1.06723
3.49929 1.06883
3.50164 1.07367
3.50398 1.07064
3.50633 1.06398
3.50867 1.05864
3.51102 1.05203
3.51337 1.05803
3.51571 1.06117
3.51806 1.06108
3.5204 1.05975
3.52275 1.06059
3.52509 1.05887
3.52744 1.05855
3.52978 1.0533
3.53213 1.04537
3.53447 1.04564
3.53682 1.04196
3.53916 1.03333
3.54151 1.02845
3.54386 1.02671
3.5462 1.02217
3.54855 1.01623
3.55089 1.00342
3.55324 0.994873
3.55558 0.985629
3.55793 0.968463
3.56027 0.955531
3.56262 0.9454
3.56496 0.942665
3.56731 0.935688
3.56965 0.918727
3.572 0.913236
3.57434 0.903735
3.57669 0.891444
3.57904 0.880171
3.58138 0.872032
3.58373 0.865815
3.58607 0.855972
3.58842 0.853005
3.59076 0.850224
3.59311 0.844225
3.59545 0.835796
3.5978 0.832722
3.60014 0.828317
3.60249 0.821495
3.60483 0.814997
3.60718 0.81279
3.60953 0.808681
3.61187 0.805789
3.61422 0.80493
3.61656 0.801226
3.61891 0.791417
3.62125 0.788866
3.6236 0.78839
3.62594 0.792133
3.62829 0.792986
3.63063 0.787207
3.63298 0.78389
3.63532 0.782509
3.63767 0.782235
3.64002 0.785684
3.64236 0.789923
3.64471 0.78376
3.64705 0.783222
3.6494 0.794804
3.65174 0.800138
3.65409 0.798423
3.65643 0.803385
3.65878 0.80778
3.66112 0.80165
3.66347 0.801802
3.66581 0.805452
3.66816 0.803999
3.67051 0.81739
3.67285 0.81931
3.6752 0.82253
3.67754 0.827818
3.67989 0.832509
3.68223 0.832885
3.68458 0.83542
3.68692 0.843894
3.68927 0.851522
3.69161 0.854462
3.69396 0.857534
3.6963 0.860662
3.69865 0.868534
3.70099 0.876383
3.70334 0.882692
3.70569 0.889992
3.70803 0.891248
3.71038 0.897138
3.71272 0.906582
3.71507 0.916928
3.71741 0.924708
3.71976 0.928196
3.7221 0.936798
3.72445 0.947784
3.72679 0.954537
3.72914 0.952315
3.73148 0.951408
3.73383 0.950451
3.73618 0.957185
3.73852 0.965798
3.74087 0.97185
3.74321 0.980732
3.74556 0.993374
3.7479 1.00179
3.75025 1.00904
3.75259 1.01327
3.75494 1.00505
3.75728 1.01192
3.75963 1.02241
3.76197 1.02749
3.76432 1.03247
3.76667 1.05003
3.76901 1.03763
3.77136 1.03885
3.7737 1.03774
3.77605 1.03291
3.77839 1.03016
3.78074 1.04202
3.78308 1.03093
3.78543 1.02937
3.78777 1.02839
3.79012 1.0192
3.79246 1.01885
3.79481 1.01444
3.79716 1.01694
3.7995 1.01126
3.80185 0.993989
3.80419 0.982828
3.80654 0.986798
3.80888 0.984015
3.81123 0.980059
3.81357 0.976267
3.81592 0.970079
3.81826 0.960724
3.82061 0.94817
3.82295 0.942584
3.8253 0.94384
3.82765 0.945563
3.82999 0.932369
3.83234 0.931489
3.83468 0.927638
3.83703 0.919213
3.83937 0.90826
3.84172 0.898085
3.84406 0.896802
3.84641 0.890943
3.84875 0.886669
3.8511 0.885027
3.85344 0.876137
3.85579 0.866063
3.85813 0.869492
3.86048 0.863247
3.86283 0.846937
3.86517 0.839461
3.86752 0.843466
3.86986 0.840091
3.87221 0.837031
3.87455 0.834407
3.8769 0.829727
3.87924 0.825139
3.88159 0.816545
3.88393 0.810557
3.88628 0.807509
3.88862 0.806372
3.89097 0.806521
3.89332 0.80675
3.89566 0.80159
3.89801 0.795281
3.90035 0.790582
3.9027 0.786608
3.90504 0.779854
3.90739 0.782281
3.90973 0.785104
3.91208 0.784019
3.91442 0.779036
3.91677 0.774537
3.91911 0.772187
3.92146 0.776036
3.92381 0.780722
3.92615 0.778769
3.9285 0.771812
3.93084 0.770554
3.93319 0.768894
3.93553 0.769757
3.93788 0.773333
3.94022 0.7687
3.94257 0.766043
3.94491 0.765283
3.94726 0.768508
3.9496 0.773531
3.95195 0.772873
3.9543 0.765807
3.95664 0.763066
3.95899 0.763603
3.96133 0.768346
3.96368 0.777878
3.96602 0.775764
3.96837 0.774363
3.97071 0.772244
3.97306 0.769809
3.9754 0.769249
3.97775 0.778011
3.98009 0.782944
3.98244 0.779177
3.98478 0.773858
3.98713 0.77405
3.98948 0.782766
3.99182 0.779345
3.99417 0.780536
3.99651 0.780782
3.99886 0.778377
4.0012 0.776984
4.00355 0.791968
4.00589 0.795968
4.00824 0.801309
4.01058 0.803904
4.01293 0.795372
4.01527 0.796626
4.01762 0.799697
4.01997 0.800755
4.02231 0.800713
4.02466 0.801018
4.027 0.801046
4.02935 0.80169
4.03169 0.804567
4.03404 0.805562
4.03638 0.80375
4.03873 0.803689
4.04107 0.798498
4.04342 0.802079
4.04576 0.806165
4.04811 0.807338
4.05046 0.806673
4.0528 0.810666
4.05515 0.821792
4.05749 0.818095
4.05984 0.80933
4.06218 0.810947
4.06453 0.81086
4.06687 0.815029
4.06922 0.81549
4.07156 0.816015
4.07391 0.817819
4.07625 0.812909
4.0786 0.815767
4.08095 0.812001
4.08329 0.812433
4.08564 0.817521
4.08798 0.816574
4.09033 0.811977
4.09267 0.806406
4.09502 0.810632
4.09736 0.81718
4.09971 0.813875
4.10205 0.817733
4.1044 0.816518
4.10674 0.811248
4.10909 0.809132
4.11143 0.814571
4.11378 0.820538
4.11613 0.821531
4.11847 0.81644
4.12082 0.81223
4.12316 0.810493
4.12551 0.805103
4.12785 0.806607
4.1302 0.81021
4.13254 0.80678
4.13489 0.801141
4.13723 0.804605
4.13958 0.805957
4.14192 0.800312
4.14427 0.795236
4.14662 0.793434
4.14896 0.795911
4.15131 0.803183
4.15365 0.800196
4.156 0.799508
4.15834 0.80247
4.16069 0.807238
4.16303 0.809145
4.16538 0.807873
4.16772 0.804804
4.17007 0.800126
4.17241 0.797672
4.17476 0.802811
4.17711 0.807568
4.17945 0.805111
4.1818 0.806858
4.18414 0.810167
4.18649 0.808971
4.18883 0.803992
4.19118 0.810295
4.19352 0.811325
4.19587 0.81337
4.19821 0.81981
4.20056 0.822529
4.2029 0.826797
4.20525 0.828102
4.2076 0.827398
4.20994 0.828158
4.21229 0.834743
4.21463 0.835608
4.21698 0.845266
4.21932 0.851388
4.22167 0.857103
4.22401 0.869692
4.22636 0.88633
4.2287 0.895398
4.23105 0.894156
4.23339 0.892456
4.23574 0.89911
4.23808 0.916109
4.24043 0.929208
4.24278 0.943261
4.24512 0.957437
4.24747 0.969785
4.24981 0.978321
4.25216 0.994563
4.2545 1.00861
4.25685 1.03023
4.25919 1.05258
4.26154 1.06679
4.26388 1.09101
4.26623 1.11152
4.26857 1.13424
4.27092 1.1602
4.27327 1.18599
4.27561 1.20077
4.27796 1.22623
4.2803 1.25185
4.28265 1.27664
4.28499 1.30179
4.28734 1.32966
4.28968 1.35188
4.29203 1.37674
4.29437 1.40787
4.29672 1.43924
4.29906 1.46514
4.30141 1.50421
4.30376 1.52492
4.3061 1.55687
4.30845 1.5857
4.31079 1.60031
4.31314 1.61275
4.31548 1.62691
4.31783 1.65188
4.32017 1.67575
4.32252 1.69642
4.32486 1.72111
4.32721 1.73796
4.32955 1.76298
4.3319 1.78802
4.33425 1.81176
4.33659 1.83323
4.33894 1.83837
4.34128 1.84745
4.34363 1.87175
4.34597 1.89646
4.34832 1.91639
4.35066 1.95389
4.35301 1.98029
4.35535 2.00921
4.3577 2.03797
4.36004 2.06511
4.36239 2.09059
4.36473 2.11153
4.36708 2.12664
4.36943 2.13524
4.37177 2.1351
4.37412 2.12225
4.37646 2.08552
4.37881 2.06386
4.38115 2.01406
4.3835 1.95779
4.38584 1.90741
4.38819 1.84263
4.39053 1.789
4.39288 1.7219
4.39522 1.64805
4.39757 1.57936
4.39992 1.52899
4.40226 1.49444
4.40461 1.44389
4.40695 1.39654
4.4093 1.35819
4.41164 1.3306
4.41399 1.31788
4.41633 1.29647
4.41868 1.27407
4.42102 1.25432
4.42337 1.23938
4.42571 1.22977
4.42806 1.22228
4.43041 1.2121
4.43275 1.20546
4.4351 1.20207
4.43744 1.19886
4.43979 1.20517
4.44213 1.20161
4.44448 1.1996
4.44682 1.20131
4.44917 1.20573
4.45151 1.21004
4.45386 1.21252
4.4562 1.2208
4.45855 1.22325
4.4609 1.21979
4.46324 1.22446
4.46559 1.22831
4.46793 1.22743
4.47028 1.22883
4.47262 1.23334
4.47497 1.23874
4.47731 1.24413
4.47966 1.2532
4.482 1.25073
4.48435 1.24327
4.48669 1.24152
4.48904 1.2556
4.49138 1.2594
4.49373 1.24765
4.49608 1.23771
4.49842 1.23315
4.50077 1.22495
4.50311 1.21407
4.50546 1.21567
4.5078 1.20477
4.51015 1.19033
4.51249 1.18458
4.51484 1.16474
4.51718 1.15261
4.51953 1.15716
4.52187 1.16023
4.52422 1.15338
4.52657 1.14789
4.52891 1.14024
4.53126 1.1276
4.5336 1.11553
4.53595 1.10592
4.53829 1.09863
4.54064 1.09743
4.54298 1.08925
4.54533 1.08337
4.54767 1.07488
4.55002 1.06314
4.55236 1.06682
4.55471 1.04965
4.55706 1.03825
4.5594 1.037
4.56175 1.04313
4.56409 1.04788
4.56644 1.0372
4.56878 1.0321
4.57113 1.02081
4.57347 1.00983
4.57582 1.00906
4.57816 1.01004
4.58051 0.998205
4.58285 0.992795
4.5852 0.98552
4.58755 0.971933
4.58989 0.960275
4.59224 0.956486
4.59458 0.962314
4.59693 0.964068
4.59927 0.961864
4.60162 0.963451
4.60396 0.958678
4.60631 0.955157
4.60865 0.955335
4.611 0.952234
4.61334 0.943991
4.61569 0.948321
4.61803 0.948024
4.62038 0.944527
4.62273 0.941941
4.62507 0.942565
4.62742 0.945893
4.62976 0.94079
4.63211 0.940143
4.63445 0.94447
4.6368 0.952017
4.63914 0.958404
4.64149 0.952334
4.64383 0.954755
4.64618 0.95488
4.64852 0.96078
4.65087 0.974733
4.65322 0.986527
4.65556 0.974466
4.65791 0.96938
4.66025 0.971922
4.6626 0.978906
4.66494 0.986588
4.66729 1.00413
4.66963 1.00665
4.67198 1.01369
4.67432 1.02423
4.67667 1.03603
4.67901 1.05474
4.68136 1.07714
4.68371 1.08457
4.68605 1.08842
4.6884 1.09721
4.69074 1.11282
4.69309 1.10766
4.69543 1.11618
4.69778 1.13493
4.70012 1.16175
4.70247 1.18899
4.70481 1.1902
4.70716 1.20587
4.7095 1.2155
4.71185 1.22438
4.7142 1.24663
4.71654 1.30033
4.71889 1.31864
4.72123 1.34009
4.72358 1.35546
4.72592 1.36927
4.72827 1.39081
4.73061 1.42059
4.73296 1.43558
4.7353 1.44871
4.73765 1.4792
4.73999 1.52224
4.74234 1.53316
4.74468 1.56013
4.74703 1.57818
4.74938 1.60088
4.75172 1.63348
4.75407 1.67067
4.75641 1.67517
4.75876 1.7165
4.7611 1.74576
4.76345 1.76304
4.76579 1.7764
4.76814 1.78604
4.77048 1.81072
4.77283 1.82367
4.77517 1.83527
4.77752 1.849
4.77987 1.8617
4.78221 1.88051
4.78456 1.87765
4.7869 1.87574
4.78925 1.87855
4.79159 1.88365
4.79394 1.88789
4.79628 1.86303
4.79863 1.85415
4.80097 1.85114
4.80332 1.83976
4.80566 1.80798
4.80801 1.7613
4.81036 1.73424
4.8127 1.71519
4.81505 1.69197
4.81739 1.65762
4.81974 1.62492
4.82208 1.60478
4.82443 1.58226
4.82677 1.54109
4.82912 1.48878
4.83146 1.46116
4.83381 1.42807
4.83615 1.3983
4.8385 1.3607
4.84085 1.32267
4.84319 1.29642
4.84554 1.27355
4.84788 1.24366
4.85023 1.21786
4.85257 1.19613
4.85492 1.17668
4.85726 1.15771
4.85961 1.1324
4.86195 1.11791
4.8643 1.10013
4.86664 1.07529
4.86899 1.04735
4.87133 1.0274
4.87368 1.00077
4.87603 0.977228
4.87837 0.960643
4.88072 0.952162
4.88306 0.950209
4.88541 0.933134
4.88775 0.926059
4.8901 0.919143
4.89244 0.906958
4.89479 0.889819
4.89713 0.881927
4.89948 0.881039
4.90182 0.866567
4.90417 0.85407
4.90652 0.854862
4.90886 0.854406
4.91121 0.84518
4.91355 0.834611
4.9159 0.824597
4.91824 0.815013
4.92059 0.805453
4.92293 0.806055
4.92528 0.804616
4.92762 0.795523
4.92997 0.781827
4.93231 0.771051
4.93466 0.775286
4.93701 0.77788
4.93935 0.778266
4.9417 0.774445
4.94404 0.767081
4.94639 0.759923
4.94873 0.765495
4.95108 0.759738
4.95342 0.74747
4.95577 0.739052
4.95811 0.740739
4.96046 0.744815
4.9628 0.742955
4.96515 0.741859
4.9675 0.740836
4.96984 0.73974
4.97219 0.739709
4.97453 0.74743
4.97688 0.740716
4.97922 0.730478
4.98157 0.726344
4.98391 0.731388
4.98626 0.733023
4.9886 0.72802
4.99095 0.723056
4.99329 0.722304
4.99564 0.72682
4.99799 0.733415
5.00033 0.722335
5.00268 0.716909
5.00502 0.718606
5.00737 0.721308
5.00971 0.720707
5.01206 0.723486
5.0144 0.719696
5.01675 0.719521
5.01909 0.718009
5.02144 0.715929
5.02378 0.719476
5.02613 0.730452
5.02847 0.728527
5.03082 0.725775
5.03317 0.728947
5.03551 0.738444
5.03786 0.742812
5.0402 0.73956
5.04255 0.738673
5.04489 0.738299
5.04724 0.737467
5.04958 0.73591
5.05193 0.725729
5.05427 0.721801
5.05662 0.729731
5.05896 0.741451
5.06131 0.745434
5.06366 0.732007
5.066 0.719628
5.06835 0.724975
5.07069 0.729931
5.07304 0.730448
5.07538 0.735183
5.07773 0.745264
5.08007 0.738945
5.08242 0.739708
5.08476 0.743078
5.08711 0.743768
5.08945 0.751331
5.0918 0.751373
5.09415 0.746252
5.09649 0.745574
5.09884 0.748644
5.10118 0.748569
5.10353 0.754817
5.10587 0.757031
5.10822 0.756343
5.11056 0.75436
5.11291 0.753338
5.11525 0.756297
5.1176 0.765387
5.11994 0.774634
5.12229 0.777986
5.12464 0.776425
5.12698 0.775302
5.12933 0.776192
5.13167 0.772781
5.13402 0.776491
5.13636 0.779734
5.13871 0.77959
5.14105 0.787921
5.1434 0.789628
5.14574 0.786354
5.14809 0.792086
5.15043 0.802144
5.15278 0.804209
5.15512 0.805868
5.15747 0.817365
5.15982 0.831782
5.16216 0.843677
5.16451 0.849228
5.16685 0.84735
5.1692 0.850768
5.17154 0.866869
5.17389 0.864847
5.17623 0.86113
5.17858 0.881423
5.18092 0.889212
5.18327 0.900209
5.18561 0.902008
5.18796 0.89948
5.19031 0.89554
5.19265 0.888655
5.195 0.902759
5.19734 0.913147
5.19969 0.920221
5.20203 0.921827
5.20438 0.917513
5.20672 0.915254
5.20907 0.906299
5.21141 0.917888
5.21376 0.927648
5.2161 0.921844
5.21845 0.90355
5.2208 0.906131
5.22314 0.913396
5.22549 0.910673
5.22783 0.904989
5.23018 0.90312
5.23252 0.893046
5.23487 0.893636
5.23721 0.90132
5.23956 0.908899
5.2419 0.911285
5.24425 0.907376
5.24659 0.90922
5.24894 0.915363
5.25129 0.917367
5.25363 0.920927
5.25598 0.927913
5.25832 0.926573
5.26067 0.923382
5.26301 0.922458
5.26536 0.923856
5.2677 0.929457
5.27005 0.937994
5.27239 0.92477
5.27474 0.92442
5.27708 0.928836
5.27943 0.931569
5.28177 0.934913
5.28412 0.952274
5.28647 0.963126
5.28881 0.960011
5.29116 0.956106
5.2935 0.951769
5.29585 0.946055
5.29819 0.955781
5.30054 0.963492
5.30288 0.964769
5.30523 0.967986
5.30757 0.975221
5.30992 0.980738
5.31226 0.985758
5.31461 0.981049
5.31696 0.978737
5.3193 0.977812
5.32165 0.976352
5.32399 0.980897
5.32634 0.980763
5.32868 0.988197
5.33103 0.993925
5.33337 0.997812
5.33572 1.00512
5.33806 1.00213
5.34041 0.999557
5.34275 1.00373
5.3451 1.01015
5.34745 1.01429
5.34979 1.01592
5.35214 1.01302
5.35448 1.0025
5.35683 0.992673
5.35917 0.990821
5.36152 0.997611
5.36386 0.989852
5.36621 0.98956
5.36855 0.992841
5.3709 0.996628
5.37324 1.00029
5.37559 1.00562
5.37794 1.00652
5.38028 0.992818
5.38263 0.992523
5.38497 0.998994
5.38732 0.998432
5.38966 0.991102
5.39201 0.992397
5.39435 0.984701
5.3967 0.973452
5.39904 0.965495
5.40139 0.965999
5.40373 0.97076
5.40608 0.970799
5.40842 0.973194
5.41077 0.976515
5.41312 0.975322
5.41546 0.961422
5.41781 0.954137
5.42015 0.951538
5.4225 0.946875
5.42484 0.943912
5.42719 0.947416
5.42953 0.945026
5.43188 0.943339
5.43422 0.941561
5.43657 0.941302
5.43891 0.942467
5.44126 0.942936
5.44361 0.941143
5.44595 0.931837
5.4483 0.933602
5.45064 0.934393
5.45299 0.925343
5.45533 0.92589
5.45768 0.932569
5.46002 0.932821
5.46237 0.934599
5.46471 0.941688
5.46706 0.950902
5.4694 0.939697
5.47175 0.951741
5.4741 0.960427
5.47644 0.968281
5.47879 0.979804
5.48113 0.995
5.48348 0.997475
5.48582 1.00904
5.48817 1.02978
5.49051 1.05312
5.49286 1.07111
5.4952 1.07975
5.49755 1.103
5.49989 1.13395
5.50224 1.15636
5.50459 1.17265
5.50693 1.1997
5.50928 1.24463
5.51162 1.30345
5.51397 1.35069
5.51631 1.38531
5.51866 1.4116
5.521 1.43388
5.52335 1.46948
5.52569 1.50197
5.52804 1.53067
5.53038 1.57018
5.53273 1.62198
5.53507 1.61987
5.53742 1.62521
5.53977 1.63479
5.54211 1.63479
5.54446 1.62132
5.5468 1.59899
5.54915 1.5526
5.55149 1.53306
5.55384 1.50425
5.55618 1.4644
5.55853 1.41849
5.56087 1.36838
5.56322 1.33492
5.56556 1.30575
5.56791 1.28554
5.57026 1.26061
5.5726 1.21936
5.57495 1.19121
5.57729 1.16941
5.57964 1.15059
5.58198 1.1258
5.58433 1.09945
5.58667 1.08844
5.58902 1.10454
5.59136 1.0794
5.59371 1.0714
5.59605 1.07136
5.5984 1.06495
5.60075 1.06008
5.60309 1.06655
5.60544 1.05358
5.60778 1.04507
5.61013 1.04077
5.61247 1.03427
5.61482 1.04558
5.61716 1.03503
5.61951 1.03369
5.62185 1.02601
5.6242 1.0127
5.62654 1.01143
5.62889 1.01605
5.63124 1.02262
5.63358 1.01297
5.63593 0.995773
5.63827 0.984044
5.64062 0.985102
5.64296 0.968039
5.64531 0.943263
5.64765 0.926445
5.65 0.916617
5.65234 0.906546
5.65469 0.89674
5.65703 0.880372
5.65938 0.874746
5.66172 0.867682
5.66407 0.854539
5.66642 0.839899
5.66876 0.82877
5.67111 0.807627
5.67345 0.795459
5.6758 0.789596
5.67814 0.784332
5.68049 0.776944
5.68283 0.764485
5.68518 0.763016
5.68752 0.763099
5.68987 0.763707
5.69221 0.765329
5.69456 0.762368
5.69691 0.754523
5.69925 0.739985
5.7016 0.73181
5.70394 0.730557
5.70629 0.728856
5.70863 0.734219
5.71098 0.744876
5.71332 0.741963
5.71567 0.734599
5.71801 0.731297
5.72036 0.732235
5.7227 0.723686
5.72505 0.72453
5.7274 0.718152
5.72974 0.710583
5.73209 0.709551
5.73443 0.709111
5.73678 0.716313
5.73912 0.716735
5.74147 0.715392
5.74381 0.715239
5.74616 0.716523
5.7485 0.715345
5.75085 0.714955
5.75319 0.714467
5.75554 0.716534
5.75789 0.714659
5.76023 0.697616
5.76258 0.695101
5.76492 0.699111
5.76727 0.704384
5.76961 0.703477
5.77196 0.696977
5.7743 0.698796
5.77665 0.702654
5.77899 0.697666
5.78134 0.692988
5.78368 0.692984
5.78603 0.694986
5.78837 0.683149
5.79072 0.685152
5.79307 0.687922
5.79541 0.684107
5.79776 0.679325
5.8001 0.684574
5.80245 0.690603
5.80479 0.682539
5.80714 0.679369
5.80948 0.682784
5.81183 0.689851
5.81417 0.69452
5.81652 0.676678
5.81886 0.676058
5.82121 0.676549
5.82356 0.68126
5.8259 0.691992
5.82825 0.698055
5.83059 0.681535
5.83294 0.68261
5.83528 0.684672
5.83763 0.684508
5.83997 0.683893
5.84232 0.677649
5.84466 0.677269
5.84701 0.673666
5.84935 0.673994
5.8517 0.67794
5.85405 0.680194
5.85639 0.686036
5.85874 0.698207
5.86108 0.702168
5.86343 0.700218
5.86577 0.697989
5.86812 0.700711
5.87046 0.706243
5.87281 0.712286
5.87515 0.708549
5.8775 0.701713
5.87984 0.698515
5.88219 0.696053
5.88454 0.700473
5.88688 0.697861
5.88923 0.702514
5.89157 0.712017
5.89392 0.718002
5.89626 0.719399
5.89861 0.736122
5.90095 0.738858
5.9033 0.736577
5.90564 0.734363
5.90799 0.731581
5.91033 0.72306
5.91268 0.728206
5.91502 0.735296
5.91737 0.744819
5.91972 0.754985
5.92206 0.760943
5.92441 0.767532
5.92675 0.76266
5.9291 0.755251
5.93144 0.755521
5.93379 0.765922
5.93613 0.775911
5.93848 0.772082
5.94082 0.771568
5.94317 0.775574
5.94551 0.775341
5.94786 0.76883
5.95021 0.77933
5.95255 0.786617
5.9549 0.789796
5.95724 0.789331
5.95959 0.792838
5.96193 0.805146
5.96428 0.80517
5.96662 0.813051
5.96897 0.815795
5.97131 0.81835
5.97366 0.820574
5.976 0.817239
5.97835 0.807898
5.9807 0.809814
5.98304 0.818256
5.98539 0.819699
5.98773 0.815862
5.99008 0.826377
5.99242 0.838311
5.99477 0.840789
5.99711 0.84365
5.99946 0.848455
6.0018 0.851323
6.00415 0.844022
6.00649 0.84314
6.00884 0.849758
6.01119 0.860001
6.01353 0.861653
6.01588 0.852911
6.01822 0.865782
6.02057 0.845408
6.02291 0.852203
6.02526 0.862325
6.0276 0.861673
6.02995 0.851571
6.03229 0.858912
6.03464 0.858551
6.03698 0.862946
6.03933 0.856828
6.04167 0.850247
6.04402 0.866355
6.04637 0.871156
6.04871 0.877099
6.05106 0.876228
6.0534 0.874981
6.05575 0.877969
6.05809 0.883132
6.06044 0.870788
6.06278 0.872647
6.06513 0.879403
6.06747 0.895949
6.06982 0.913521
6.07216 0.902141
6.07451 0.906503
6.07686 0.916828
6.0792 0.918691
6.08155 0.910316
6.08389 0.899498
6.08624 0.902787
6.08858 0.910428
6.09093 0.920268
6.09327 0.921805
6.09562 0.920338
6.09796 0.924341
6.10031 0.928564
6.10265 0.908958
6.105 0.910331
6.10735 0.920665
6.10969 0.926465
6.11204 0.921633
6.11438 0.923354
6.11673 0.911825
6.11907 0.910768
6.12142 0.923051
6.12376 0.933479
6.12611 0.921572
6.12845 0.909935
6.1308 0.907818
6.13314 0.910354
6.13549 0.915118
6.13784 0.919011
6.14018 0.918071
6.14253 0.906114
6.14487 0.89965
6.14722 0.892648
6.14956 0.889333
6.15191 0.88916
6.15425 0.883128
6.1566 0.879209
6.15894 0.866406
6.16129 0.86871
6.16363 0.868009
6.16598 0.856018
6.16832 0.862809
6.17067 0.86096
6.17302 0.860179
6.17536 0.853274
6.17771 0.843627
6.18005 0.839393
6.1824 0.848949
6.18474 0.852289
6.18709 0.845332
6.18943 0.830656
6.19178 0.818224
6.19412 0.814057
6.19647 0.803061
6.19881 0.814239
6.20116 0.819807
6.20351 0.816448
6.20585 0.808038
6.2082 0.801467
6.21054 0.800411
6.21289 0.795711
6.21523 0.791121
6.21758 0.794345
6.21992 0.803033
6.22227 0.806938
6.22461 0.796364
6.22696 0.777721
6.2293 0.771513
6.23165 0.767899
6.234 0.763122
6.23634 0.762308
6.23869 0.766531
6.24103 0.769312
6.24338 0.784159
6.24572 0.786027
6.24807 0.772688
6.25041 0.770753
6.25276 0.770062
6.2551 0.772089
6.25745 0.773926
6.25979 0.770528
6.26214 0.765613
6.26449 0.771427
6.26683 0.757891
6.26918 0.763002
6.27152 0.767073
6.27387 0.767858
6.27621 0.764955
6.27856 0.755027
6.2809 0.76606
6.28325 0.772273
6.28559 0.765904
6.28794 0.758825
6.29028 0.761402
6.29263 0.768732
6.29498 0.773449
6.29732 0.770954
6.29967 0.766355
6.30201 0.762689
6.30436 0.759977
6.3067 0.754057
6.30905 0.769122
6.31139 0.776835
6.31374 0.777025
6.31608 0.779548
6.31843 0.787182
6.32077 0.775346
6.32312 0.754154
6.32546 0.768442
6.32781 0.783056
6.33016 0.786296
6.3325 0.782623
6.33485 0.780669
6.33719 0.776146
6.33954 0.768598
6.34188 0.765659
6.34423 0.765371
6.34657 0.761268
6.34892 0.751815
6.35126 0.768894
6.35361 0.764307
6.35595 0.757728
6.3583 0.757895
6.36065 0.761328
6.36299 0.758776
6.36534 0.765436
6.36768 0.773955
6.37003 0.771137
6.37237 0.761564
6.37472 0.758843
6.37706 0.758252
6.37941 0.767066
6.38175 0.759247
6.3841 0.751739
6.38644 0.754421
6.38879 0.763703
6.39114 0.758366
6.39348 0.76283
6.39583 0.759331
6.39817 0.755806
6.40052 0.755667
6.40286 0.756661
6.40521 0.76225
6.40755 0.777475
6.4099 0.768068
6.41224 0.749388
6.41459 0.739166
6.41693 0.744421
6.41928 0.739664
6.42163 0.742736
6.42397 0.749909
6.42632 0.750181
6.42866 0.744508
6.43101 0.745462
6.43335 0.759281
6.4357 0.749935
6.43804 0.754517
6.44039 0.760281
6.44273 0.758216
6.44508 0.753166
6.44742 0.759405
6.44977 0.754239
6.45211 0.753355
6.45446 0.755196
6.45681 0.755325
6.45915 0.751918
6.4615 0.760577
6.46384 0.760868
6.46619 0.763658
6.46853 0.765546
6.47088 0.765293
6.47322 0.765636
6.47557 0.759128
6.47791 0.765006
6.48026 0.76474
6.4826 0.759431
6.48495 0.752036
6.4873 0.744824
6.48964 0.753411
6.49199 0.760266
6.49433 0.771558
6.49668 0.777012
6.49902 0.772851
6.50137 0.766523
6.50371 0.765981
6.50606 0.777517
6.5084 0.774531
6.51075 0.778284
6.51309 0.793272
6.51544 0.796192
6.51779 0.777812
6.52013 0.786932
6.52248 0.791925
6.52482 0.795469
6.52717 0.798552
6.52951 0.795711
6.53186 0.803859
6.5342 0.815565
6.53655 0.817265
6.53889 0.817472
6.54124 0.824674
6.54358 0.83853
6.54593 0.831327
6.54828 0.828877
6.55062 0.838686
6.55297 0.85463
6.55531 0.86656
6.55766 0.865984
6.56 0.860711
6.56235 0.864782
6.56469 0.867294
6.56704 0.869129
6.56938 0.87046
6.57173 0.870631
6.57407 0.883382
6.57642 0.882452
6.57876 0.888145
6.58111 0.893444
6.58346 0.895126
6.5858 0.897803
6.58815 0.902245
6.59049 0.911336
6.59284 0.917316
6.59518 0.915003
6.59753 0.905993
6.59987 0.897895
6.60222 0.898641
6.60456 0.897035
6.60691 0.897849
6.60925 0.894654
6.6116 0.895781
6.61395 0.915007
6.61629 0.921483
6.61864 0.92411
6.62098 0.922052
6.62333 0.916114
6.62567 0.913507
6.62802 0.9202
6.63036 0.914612
6.63271 0.90588
6.63505 0.906436
6.6374 0.902667
6.63974 0.897114
6.64209 0.902341
6.64444 0.912479
6.64678 0.908877
6.64913 0.900507
6.65147 0.907934
6.65382 0.917865
6.65616 0.905756
6.65851 0.894154
6.66085 0.89263
6.6632 0.900608
6.66554 0.903811
6.66789 0.90471
6.67023 0.911633
6.67258 0.915193
6.67493 0.919133
6.67727 0.912386
6.67962 0.914975
6.68196 0.922046
6.68431 0.920507
6.68665 0.916915
6.689 0.919369
6.69134 0.934929
6.69369 0.939655
6.69603 0.943229
6.69838 0.955734
6.70072 0.947374
6.70307 0.956516
6.70541 0.973378
6.70776 0.986332
6.71011 0.990553
6.71245 0.990299
6.7148 1.00029
6.71714 1.02262
6.71949 1.04079
6.72183 1.05011
6.72418 1.05529
6.72652 1.06127
6.72887 1.06707
6.73121 1.07808
6.73356 1.09255
6.7359 1.10736
6.73825 1.12033
6.7406 1.12819
6.74294 1.12777
6.74529 1.14419
6.74763 1.16793
6.74998 1.18272
6.75232 1.18739
6.75467 1.19033
6.75701 1.20341
6.75936 1.21222
6.7617 1.231
6.76405 1.23656
6.76639 1.23795
6.76874 1.24752
6.77109 1.26935
6.77343 1.28193
6.77578 1.29634
6.77812 1.31034
6.78047 1.32418
6.78281 1.33856
6.78516 1.35177
6.7875 1.34941
6.78985 1.34369
6.79219 1.35604
6.79454 1.36901
6.79688 1.36506
6.79923 1.342
6.80158 1.33848
6.80392 1.34718
6.80627 1.35073
6.80861 1.34137
6.81096 1.32818
6.8133 1.32577
6.81565 1.33481
6.81799 1.31682
6.82034 1.30957
6.82268 1.30747
6.82503 1.29876
6.82737 1.28093
6.82972 1.27643
6.83206 1.27152
6.83441 1.27037
6.83676 1.26046
6.8391 1.25118
6.84145 1.25113
6.84379 1.25059
6.84614 1.23685
6.84848 1.25143
6.85083 1.26333
6.85317 1.26295
6.85552 1.25723
6.85786 1.26403
6.86021 1.27579
6.86255 1.27268
6.8649 1.27953
6.86725 1.2897
6.86959 1.293
6.87194 1.28611
6.87428 1.27823
6.87663 1.27154
6.87897 1.27859
6.88132 1.28009
6.88366 1.27562
6.88601 1.28128
6.88835 1.28658
6.8907 1.28367
6.89304 1.29153
6.89539 1.30166
6.89774 1.30082
6.90008 1.28624
6.90243 1.29174
6.90477 1.2974
6.90712 1.29642
6.90946 1.2845
6.91181 1.28179
6.91415 1.30192
6.9165 1.31314
6.91884 1.31457
6.92119 1.3073
6.92353 1.29584
6.92588 1.2798
6.92823 1.26354
6.93057 1.26161
6.93292 1.26545
6.93526 1.27578
6.93761 1.28979
6.93995 1.30017
6.9423 1.29848
6.94464 1.28129
6.94699 1.28397
6.94933 1.27977
6.95168 1.25859
6.95402 1.24919
6.95637 1.26306
6.95871 1.28254
6.96106 1.27204
6.96341 1.26804
6.96575 1.26478
6.9681 1.27112
6.97044 1.27491
6.97279 1.25812
6.97513 1.23978
6.97748 1.22701
6.97982 1.22242
6.98217 1.22323
6.98451 1.22567
6.98686 1.22784
6.9892 1.23256
6.99155 1.23454
6.9939 1.22654
6.99624 1.21655
6.99859 1.21184
7.00093 1.2152
7.00328 1.22286
7.00562 1.23373
7.00797 1.23419
7.01031 1.2317
7.01266 1.22774
7.015 1.22513
7.01735 1.22811
7.01969 1.22803
7.02204 1.21319
7.02439 1.2007
7.02673 1.19757
7.02908 1.20187
7.03142 1.20503
7.03377 1.19814
7.03611 1.18885
7.03846 1.18409
7.0408 1.17891
7.04315 1.17953
7.04549 1.19028
7.04784 1.19191
7.05018 1.15729
7.05253 1.15103
7.05488 1.15047
7.05722 1.14291
7.05957 1.12755
7.06191 1.11479
7.06426 1.11084
7.0666 1.09774
7.06895 1.08292
7.07129 1.07463
7.07364 1.07475
7.07598 1.07592
7.07833 1.06196
7.08067 1.05737
7.08302 1.05726
7.08536 1.05231
7.08771 1.04106
7.09006 1.03288
7.0924 1.05028
7.09475 1.02281
7.09709 1.02015
7.09944 1.01917
7.10178 1.00695
7.10413 0.989117
7.10647 0.989636
7.10882 0.972976
7.11116 0.974135
7.11351 0.973086
7.11585 0.967912
7.1182 0.960266
7.12055 0.947632
7.12289 0.947513
7.12524 0.96463
7.12758 0.965928
7.12993 0.959886
7.13227 0.959279
7.13462 0.9668
7.13696 0.963277
7.13931 0.965413
7.14165 0.968667
7.144 0.962223
7.14634 0.958578
7.14869 0.973556
7.15104 0.984372
7.15338 0.970521
7.15573 0.96448
7.15807 0.961171
7.16042 0.969592
7.16276 0.987095
7.16511 0.981615
7.16745 0.968902
7.1698 0.969875
7.17214 0.970619
7.17449 0.969621
7.17683 0.970351
7.17918 0.975567
7.18153 0.972271
7.18387 0.981362
7.18622 0.991328
7.18856 0.994958
7.19091 0.993249
7.19325 0.993335
7.1956 1.00248
7.19794 1.02242
7.20029 1.03353
7.20263 1.03384
7.20498 1.02959
7.20732 1.03013
7.20967 1.04221
7.21201 1.0576
7.21436 1.06355
7.21671 1.06308
7.21905 1.06916
7.2214 1.08232
7.22374 1.08674
7.22609 1.07812
7.22843 1.07715
7.23078 1.09067
7.23312 1.10891
7.23547 1.12374
7.23781 1.13151
7.24016 1.13168
7.2425 1.13113
7.24485 1.13996
7.2472 1.14186
7.24954 1.13742
7.25189 1.13673
7.25423 1.1491
7.25658 1.1573
7.25892 1.16192
7.26127 1.16344
7.26361 1.17015
7.26596 1.1814
7.2683 1.18761
7.27065 1.1969
7.27299 1.19502
7.27534 1.19736
7.27769 1.19514
7.28003 1.19233
7.28238 1.20148
7.28472 1.22907
7.28707 1.23683
7.28941 1.2334
7.29176 1.23114
7.2941 1.23201
7.29645 1.23556
7.29879 1.24335
7.30114 1.24313
7.30348 1.22302
7.30583 1.20048
7.30818 1.19198
7.31052 1.19742
7.31287 1.20247
7.31521 1.1986
7.31756 1.19482
7.3199 1.19402
7.32225 1.17756
7.32459 1.15717
7.32694 1.15157
7.32928 1.15539
7.33163 1.15977
7.33397 1.12844
7.33632 1.10947
7.33866 1.09042
7.34101 1.06435
7.34336 1.05206
7.3457 1.06491
7.34805 1.06531
7.35039 1.05854
7.35274 1.04314
7.35508 1.03146
7.35743 1.03298
7.35977 1.02144
7.36212 1.01236
7.36446 0.998
7.36681 0.993414
7.36915 0.994196
7.3715 0.995806
7.37385 1.00291
7.37619 0.985487
7.37854 0.969325
7.38088 0.961663
7.38323 0.962458
7.38557 0.964861
7.38792 0.961057
7.39026 0.955765
7.39261 0.942864
7.39495 0.944187
7.3973 0.943757
7.39964 0.934048
7.40199 0.922405
7.40434 0.929399
7.40668 0.929519
7.40903 0.926606
7.41137 0.931966
7.41372 0.937403
7.41606 0.934425
7.41841 0.923024
7.42075 0.918434
7.4231 0.925243
7.42544 0.92808
7.42779 0.933396
7.43013 0.936054
7.43248 0.930758
7.43483 0.927513
7.43717 0.933441
7.43952 0.94171
7.44186 0.948712
7.44421 0.941074
7.44655 0.925414
7.4489 0.926856
7.45124 0.933994
7.45359 0.929706
7.45593 0.935702
7.45828 0.942347
7.46062 0.938533
7.46297 0.925358
7.46532 0.926928
7.46766 0.937177
7.47001 0.961661
7.47235 0.974195
7.4747 0.976293
7.47704 0.976739
7.47939 0.98012
7.48173 0.981366
7.48408 0.98206
7.48642 0.988721
7.48877 0.999493
7.49111 1.01292
7.49346 1.02934
7.4958 1.05065
7.49815 1.06488
7.5005 1.06769
7.50284 1.07702
7.50519 1.08653
7.50753 1.08879
7.50988 1.08909
7.51222 1.1165
7.51457 1.12848
7.51691 1.13779
7.51926 1.16197
7.5216 1.1881
7.52395 1.19818
7.52629 1.21039
7.52864 1.25025
7.53099 1.26426
7.53333 1.28124
7.53568 1.29052
7.53802 1.29377
7.54037 1.31613
7.54271 1.35033
7.54506 1.36604
7.5474 1.37831
7.54975 1.3806
7.55209 1.3864
7.55444 1.41008
7.55678 1.43674
7.55913 1.41104
7.56148 1.40847
7.56382 1.41407
7.56617 1.42419
7.56851 1.42424
7.57086 1.40096
7.5732 1.41943
7.57555 1.41284
7.57789 1.40326
7.58024 1.39314
7.58258 1.38664
7.58493 1.38158
7.58727 1.36201
7.58962 1.33313
7.59197 1.32183
7.59431 1.3243
7.59666 1.32733
7.599 1.3223
7.60135 1.31052
7.60369 1.30281
7.60604 1.29239
7.60838 1.30125
7.61073 1.29259
7.61307 1.27088
7.61542 1.25538
7.61776 1.25141
7.62011 1.25911
7.62245 1.24305
7.6248 1.22337
7.62715 1.20192
7.62949 1.18536
7.63184 1.18024
7.63418 1.1732
7.63653 1.16274
7.63887 1.14951
7.64122 1.13167
7.64356 1.12512
7.64591 1.1361
7.64825 1.14759
7.6506 1.13829
7.65294 1.13167
7.65529 1.12428
7.65764 1.12115
7.65998 1.12341
7.66233 1.12483
7.66467 1.11155
7.66702 1.09247
7.66936 1.08868
7.67171 1.0996
7.67405 1.10236
7.6764 1.09696
7.67874 1.10409
7.68109 1.09393
7.68343 1.0767
7.68578 1.06729
7.68813 1.06583
7.69047 1.06774
7.69282 1.06291
7.69516 1.03961
7.69751 1.03403
7.69985 1.04662
7.7022 1.03858
7.70454 1.04253
7.70689 1.06061
7.70923 1.06429
7.71158 1.0444
7.71392 1.03544
7.71627 1.028
7.71862 1.02095
7.72096 1.0246
7.72331 1.04081
7.72565 1.05629
7.728 1.06183
7.73034 1.04778
7.73269 1.03266
7.73503 1.01462
7.73738 1.00376
7.73972 1.00986
7.74207 1.02559
7.74441 1.036
7.74676 1.04773
7.7491 1.0608
7.75145 1.06156
7.7538 1.05582
7.75614 1.06009
7.75849 1.06038
7.76083 1.069
7.76318 1.08573
7.76552 1.09113
7.76787 1.08487
7.77021 1.07788
7.77256 1.08347
7.7749 1.10858
7.77725 1.11566
7.77959 1.11494
7.78194 1.1195
7.78429 1.1291
7.78663 1.13772
7.78898 1.1451
7.79132 1.15146
7.79367 1.14192
7.79601 1.1379
7.79836 1.15151
7.8007 1.16192
7.80305 1.14624
7.80539 1.15668
7.80774 1.1533
7.81008 1.15958
7.81243 1.1687
7.81478 1.17225
7.81712 1.17063
7.81947 1.17233
7.82181 1.16816
7.82416 1.16244
7.8265 1.16251
7.82885 1.17162
7.83119 1.18151
7.83354 1.1781
7.83588 1.15094
7.83823 1.11314
7.84057 1.11522
7.84292 1.11566
7.84527 1.1151
7.84761 1.11719
7.84996 1.11957
7.8523 1.11399
7.85465 1.1005
7.85699 1.07923
7.85934 1.06979
7.86168 1.07325
7.86403 1.0734
7.86637 1.05462
7.86872 1.04886
7.87106 1.0497
7.87341 1.03406
7.87575 1.02507
7.8781 1.0136
7.88045 0.999131
7.88279 1.00785
7.88514 1.01608
7.88748 1.01892
7.88983 1.01095
7.89217 0.997365
7.89452 0.981138
7.89686 0.966222
7.89921 0.962165
7.90155 0.976272
7.9039 0.984627
7.90624 0.973606
7.90859 0.966099
7.91094 0.965177
7.91328 0.95907
7.91563 0.956091
7.91797 0.960274
7.92032 0.95208
7.92266 0.947858
7.92501 0.948104
7.92735 0.949896
7.9297 0.952654
7.93204 0.958332
7.93439 0.95736
7.93673 0.955658
7.93908 0.952958
7.94143 0.965114
7.94377 0.987701
7.94612 0.986956
7.94846 0.962364
7.95081 0.93988
7.95315 0.929678
7.9555 0.932585
7.95784 0.943305
7.96019 0.950301
7.96253 0.941195
7.96488 0.944847
7.96722 0.929308
7.96957 0.929723
7.97192 0.929956
7.97426 0.925224
7.97661 0.925669
7.97895 0.942043
7.9813 0.951023
7.98364 0.935706
7.98599 0.922271
7.98833 0.923399
7.99068 0.930763
7.99302 0.929388
7.99537 0.927598
7.99771 0.913288
8.00006 0.894381
8.0024 0.909992
8.00475 0.927114
8.0071 0.926866
8.00944 0.922554
8.01179 0.906204
8.01413 0.908367
8.01648 0.904358
8.01882 0.918736
8.02117 0.939739
8.02351 0.949999
8.02586 0.947355
8.0282 0.945217
8.03055 0.943748
8.03289 0.945248
8.03524 0.941305
8.03759 0.944621
8.03993 0.96071
8.04228 0.972847
8.04462 0.982357
8.04697 0.991877
8.04931 0.984143
8.05166 0.977601
8.054 0.984589
8.05635 1.00091
8.05869 1.01009
8.06104 1.0427
8.06338 1.06279
8.06573 1.08364
8.06808 1.09913
8.07042 1.10422
8.07277 1.10417
8.07511 1.1159
8.07746 1.12249
8.0798 1.11698
8.08215 1.11443
8.08449 1.12845
8.08684 1.13914
8.08918 1.12849
8.09153 1.13299
8.09387 1.11161
8.09622 1.11426
8.09857 1.12187
8.10091 1.12816
8.10326 1.12493
8.1056 1.10974
8.10795 1.10282
8.11029 1.09401
8.11264 1.10349
8.11498 1.11992
8.11733 1.11351
8.11967 1.09899
8.12202 1.1129
8.12436 1.12599
8.12671 1.08599
8.12905 1.06786
8.1314 1.0712
8.13375 1.09061
8.13609 1.1029
8.13844 1.09248
8.14078 1.11596
8.14313 1.09493
8.14547 1.06467
8.14782 1.04279
8.15016 1.0463
8.15251 1.06236
8.15485 1.05675
8.1572 1.02811
8.15954 1.02113
8.16189 1.03452
8.16424 1.0261
8.16658 1.01161
8.16893 1.01107
8.17127 1.01838
8.17362 1.00496
8.17596 0.996536
8.17831 1.00305
8.18065 1.01141
8.183 1.00685
8.18534 0.989009
8.18769 0.972942
8.19003 0.967393
8.19238 0.956238
8.19473 0.954978
8.19707 0.945129
8.19942 0.929564
8.20176 0.922672
8.20411 0.93377
8.20645 0.941585
8.2088 0.940707
8.21114 0.936874
8.21349 0.937541
8.21583 0.937896
8.21818 0.934652
8.22052 0.929431
8.22287 0.909212
8.22522 0.910751
8.22756 0.895983
8.22991 0.884325
8.23225 0.889834
8.2346 0.907064
8.23694 0.913841
8.23929 0.898362
8.24163 0.893209
8.24398 0.889293
8.24632 0.894051
8.24867 0.896781
8.25101 0.891634
8.25336 0.886256
8.2557 0.880547
8.25805 0.876892
8.2604 0.879325
8.26274 0.88083
8.26509 0.885301
8.26743 0.889631
8.26978 0.881428
8.27212 0.865036
8.27447 0.863428
8.27681 0.887411
8.27916 0.889552
8.2815 0.876449
8.28385 0.866866
8.28619 0.863938
8.28854 0.855639
8.29089 0.869006
8.29323 0.876786
8.29558 0.878136
8.29792 0.877016
8.30027 0.873913
8.30261 0.86333
8.30496 0.83792
8.3073 0.844757
8.30965 0.849859
8.31199 0.845732
8.31434 0.850183
8.31668 0.860423
8.31903 0.855775
8.32138 0.850782
8.32372 0.86681
8.32607 0.860634
8.32841 0.852867
8.33076 0.846374
8.3331 0.843981
8.33545 0.849337
8.33779 0.854778
8.34014 0.864744
8.34248 0.852798
8.34483 0.855058
8.34717 0.863545
8.34952 0.863762
8.35187 0.854371
8.35421 0.853135
8.35656 0.853137
8.3589 0.844648
8.36125 0.845499
8.36359 0.85258
8.36594 0.861247
8.36828 0.866898
8.37063 0.861007
8.37297 0.85083
8.37532 0.839839
8.37766 0.85082
8.38001 0.865615
8.38235 0.871249
8.3847 0.87198
8.38705 0.883248
8.38939 0.881324
8.39174 0.864788
8.39408 0.865644
8.39643 0.878741
8.39877 0.888975
8.40112 0.888408
8.40346 0.886018
8.40581 0.896567
8.40815 0.889299
8.4105 0.884031
8.41284 0.88663
8.41519 0.88957
8.41754 0.890095
8.41988 0.897791
8.42223 0.907217
8.42457 0.896507
8.42692 0.888946
8.42926 0.885235
8.43161 0.877605
8.43395 0.875789
8.4363 0.903258
8.43864 0.943953
8.44099 0.941246
8.44333 0.931068
8.44568 0.924185
8.44803 0.922311
8.45037 0.928074
8.45272 0.943925
8.45506 0.95976
8.45741 0.928684
8.45975 0.929663
8.4621 0.937634
8.46444 0.936809
8.46679 0.932569
8.46913 0.938023
8.47148 0.94742
8.47382 0.944951
8.47617 0.918544
8.47852 0.918092
8.48086 0.926424
8.48321 0.92239
8.48555 0.911502
8.4879 0.925769
8.49024 0.908233
8.49259 0.918723
8.49493 0.903775
8.49728 0.890055
8.49962 0.889902
8.50197 0.900417
8.50431 0.915627
8.50666 0.927549
8.509 0.902009
8.51135 0.894646
8.5137 0.895192
8.51604 0.900854
8.51839 0.897492
8.52073 0.869839
8.52308 0.862452
8.52542 0.868025
8.52777 0.885004
8.53011 0.906154
8.53246 0.919577
8.5348 0.926629
8.53715 0.93315
8.53949 0.924933
8.54184 0.933865
8.54419 0.933103
8.54653 0.922157
8.54888 0.91631
8.55122 0.919165
8.55357 0.920895
8.55591 0.909222
8.55826 0.88918
8.5606 0.877604
8.56295 0.875424
8.56529 0.886758
8.56764 0.896331
8.56998 0.894785
8.57233 0.893996
8.57468 0.897134
8.57702 0.891193
8.57937 0.883496
8.58171 0.87704
8.58406 0.870101
8.5864 0.862939
8.58875 0.862197
8.59109 0.880346
8.59344 0.869811
8.59578 0.864887
8.59813 0.87486
8.60047 0.873952
8.60282 0.858895
8.60517 0.845801
8.60751 0.840116
8.60986 0.867586
8.6122 0.872618
8.61455 0.862369
8.61689 0.865673
8.61924 0.87121
8.62158 0.864772
8.62393 0.861903
8.62627 0.860368
8.62862 0.849281
8.63096 0.868514
8.63331 0.879185
8.63565 0.872807
8.638 0.864568
8.64035 0.870197
8.64269 0.876907
8.64504 0.879256
8.64738 0.886377
8.64973 0.884447
8.65207 0.883926
8.65442 0.892403
8.65676 0.90476
8.65911 0.907068
8.66145 0.906796
8.6638 0.885301
8.66614 0.883701
8.66849 0.898351
8.67084 0.910366
8.67318 0.911613
8.67553 0.912656
8.67787 0.910425
8.68022 0.915033
8.68256 0.909341
8.68491 0.909459
8.68725 0.922165
8.6896 0.932513
8.69194 0.928336
8.69429 0.944355
8.69663 0.959848
8.69898 0.95322
8.70133 0.947056
8.70367 0.943358
8.70602 0.94191
8.70836 0.948644
8.71071 0.969371
8.71305 0.957122
8.7154 0.938414
8.71774 0.945039
8.72009 0.961171
8.72243 0.970017
8.72478 0.959548
8.72712 0.939521
8.72947 0.96987
8.73182 0.973314
8.73416 0.973091
8.73651 0.973379
8.73885 0.973501
8.7412 0.979094
8.74354 0.99167
8.74589 0.995834
8.74823 0.98176
8.75058 0.97991
8.75292 0.991823
8.75527 0.991523
8.75761 0.987714
8.75996 0.986244
8.76231 0.974707
8.76465 0.96397
8.767 0.946372
8.76934 0.960081
8.77169 0.97814
8.77403 0.972752
8.77638 0.95255
8.77872 0.94319
8.78107 0.943916
8.78341 0.926078
8.78576 0.924884
8.7881 0.923143
8.79045 0.922976
8.79279 0.933309
8.79514 0.941573
8.79749 0.923187
8.79983 0.913138
8.80218 0.924995
8.80452 0.914245
8.80687 0.906322
8.80921 0.904061
8.81156 0.898348
8.8139 0.885292
8.81625 0.877756
8.81859 0.873809
8.82094 0.906893
8.82328 0.911287
8.82563 0.896818
8.82798 0.873119
8.83032 0.856262
8.83267 0.862368
8.83501 0.869939
8.83736 0.86728
8.8397 0.862607
8.84205 0.870626
8.84439 0.863604
8.84674 0.846393
8.84908 0.844655
8.85143 0.858613
8.85377 0.844787
8.85612 0.840658
8.85847 0.852678
8.86081 0.848657
8.86316 0.841008
8.8655 0.842735
8.86785 0.853367
8.87019 0.889334
8.87254 0.853361
8.87488 0.829156
8.87723 0.832024
8.87957 0.853403
8.88192 0.862806
8.88426 0.853336
8.88661 0.858469
8.88896 0.849844
8.8913 0.835453
8.89365 0.846022
8.89599 0.849545
8.89834 0.852351
8.90068 0.855754
8.90303 0.850551
8.90537 0.844331
8.90772 0.860931
8.91006 0.866282
8.91241 0.860348
8.91475 0.86697
8.9171 0.873535
8.91944 0.870632
8.92179 0.875854
8.92414 0.89609
8.92648 0.894272
8.92883 0.886677
8.93117 0.878121
8.93352 0.881138
8.93586 0.893633
8.93821 0.903192
8.94055 0.904046
8.9429 0.912276
8.94524 0.902141
8.94759 0.897931
8.94993 0.893771
8.95228 0.905829
8.95463 0.928823
8.95697 0.939537
8.95932 0.94318
8.96166 0.952378
8.96401 0.948173
8.96635 0.959852
8.9687 0.967166
8.97104 0.960329
8.97339 0.955363
8.97573 0.973556
8.97808 0.982842
8.98042 0.966189
8.98277 0.961793
8.98512 0.967038
8.98746 0.975908
8.98981 0.974822
8.99215 0.960351
8.9945 0.950526
8.99684 0.94809
8.99919 0.967737
9.00153 0.977066
9.00388 0.972608
9.00622 0.974787
9.00857 0.981295
9.01091 0.975159
9.01326 0.968349
9.01561 0.9942
9.01795 1.00292
9.0203 1.001
9.02264 0.985895
9.02499 0.973695
9.02733 0.973966
9.02968 0.980169
9.03202 0.989224
9.03437 1.01336
9.03671 1.02042
9.03906 1.02275
9.0414 1.02701
9.04375 1.03279
9.04609 1.03396
9.04844 1.02723
9.05079 1.03012
9.05313 1.05224
9.05548 1.05015
9.05782 1.03743
9.06017 1.01235
9.06251 1.00265
9.06486 1.02727
9.0672 1.05245
9.06955 1.0418
9.07189 1.03461
9.07424 1.0157
9.07658 0.996927
9.07893 1.00091
9.08128 1.01802
9.08362 1.0226
9.08597 1.01702
9.08831 1.01751
9.09066 1.00768
9.093 1.01558
9.09535 1.01504
9.09769 1.00203
9.10004 0.99363
9.10238 1.00235
9.10473 1.00782
9.10707 1.0022
9.10942 0.983431
9.11177 0.99527
9.11411 1.00039
9.11646 0.99541
9.1188 0.990566
9.12115 0.984114
9.12349 0.963362
9.12584 0.949042
9.12818 0.953277
9.13053 0.936243
9.13287 0.940371
9.13522 0.948111
9.13756 0.94542
9.13991 0.955639
9.14226 0.959394
9.1446 0.951477
9.14695 0.939641
9.14929 0.937318
9.15164 0.945506
9.15398 0.954716
9.15633 0.956703
9.15867 0.951741
9.16102 0.941587
9.16336 0.933148
9.16571 0.937397
9.16805 0.915943
9.1704 0.911947
9.17274 0.926503
9.17509 0.936515
9.17744 0.93936
9.17978 0.931995
9.18213 0.923825
9.18447 0.919344
9.18682 0.914901
9.18916 0.918779
9.19151 0.928319
9.19385 0.922498
9.1962 0.886824
9.19854 0.892857
9.20089 0.885831
9.20323 0.88185
9.20558 0.882611
9.20793 0.896594
9.21027 0.902422
9.21262 0.891341
9.21496 0.898457
9.21731 0.907255
9.21965 0.879447
9.222 0.871881
9.22434 0.87795
9.22669 0.884336
9.22903 0.890082
9.23138 0.898967
9.23372 0.906381
9.23607 0.908594
9.23842 0.895636
9.24076 0.90146
9.24311 0.905464
9.24545 0.896057
9.2478 0.891187
9.25014 0.896525
9.25249 0.881932
9.25483 0.886254
9.25718 0.888009
9.25952 0.892902
9.26187 0.902272
9.26421 0.885487
9.26656 0.875657
9.26891 0.896782
9.27125 0.894817
9.2736 0.892143
9.27594 0.917539
9.27829 0.918661
9.28063 0.913413
9.28298 0.899962
9.28532 0.889141
9.28767 0.888471
9.29001 0.887771
9.29236 0.900986
9.2947 0.907985
9.29705 0.904114
9.29939 0.902837
9.30174 0.901181
9.30409 0.905313
9.30643 0.915909
9.30878 0.916703
9.31112 0.903631
9.31347 0.928639
9.31581 0.927053
9.31816 0.930974
9.3205 0.930656
9.32285 0.93398
9.32519 0.946384
9.32754 0.952644
9.32988 0.950055
9.33223 0.950845
9.33458 0.970615
9.33692 0.973734
9.33927 0.976229
9.34161 0.981276
9.34396 0.984584
9.3463 0.988151
9.34865 0.996455
9.35099 1.01857
9.35334 1.03212
9.35568 1.03458
9.35803 1.02859
9.36037 1.02201
9.36272 1.02871
9.36507 1.05808
9.36741 1.09585
9.36976 1.10107
9.3721 1.11328
9.37445 1.11496
9.37679 1.11388
9.37914 1.11745
9.38148 1.11711
9.38383 1.11054
9.38617 1.13099
9.38852 1.1623
9.39086 1.14442
9.39321 1.14139
9.39556 1.14013
9.3979 1.13421
9.40025 1.12979
9.40259 1.13311
9.40494 1.13813
9.40728 1.14004
9.40963 1.15258
9.41197 1.16417
9.41432 1.14812
9.41666 1.11897
9.41901 1.10458
9.42135 1.11353
9.4237 1.12474
9.42604 1.12195
9.42839 1.13421
9.43074 1.13235
9.43308 1.13714
9.43543 1.13664
9.43777 1.12993
9.44012 1.12387
9.44246 1.12269
9.44481 1.12956
9.44715 1.12381
9.4495 1.12178
9.45184 1.12408
9.45419 1.13124
9.45653 1.14496
9.45888 1.16413
9.46123 1.17247
9.46357 1.1371
9.46592 1.09655
9.46826 1.10929
9.47061 1.1066
9.47295 1.10825
9.4753 1.11887
9.47764 1.13048
9.47999 1.13372
9.48233 1.12902
9.48468 1.13852
9.48702 1.1215
9.48937 1.12263
9.49172 1.12133
9.49406 1.11216
9.49641 1.10641
9.49875 1.10557
9.5011 1.10005
9.50344 1.11594
9.50579 1.10646
9.50813 1.10557
9.51048 1.11531
9.51282 1.11099
9.51517 1.10904
9.51751 1.12085
9.51986 1.12994
9.52221 1.12244
9.52455 1.12646
9.5269 1.12203
9.52924 1.10906
9.53159 1.11381
9.53393 1.12884
9.53628 1.13259
9.53862 1.11938
9.54097 1.1117
9.54331 1.12899
9.54566 1.14422
9.548 1.1259
9.55035 1.12474
9.55269 1.11928
9.55504 1.11362
9.55739 1.11597
9.55973 1.11974
9.56208 1.13529
9.56442 1.14462
9.56677 1.12553
9.56911 1.132
9.57146 1.14369
9.5738 1.14296
9.57615 1.13564
9.57849 1.13354
9.58084 1.12533
9.58318 1.08533
9.58553 1.11208
9.58788 1.13008
9.59022 1.14639
9.59257 1.14653
9.59491 1.1489
9.59726 1.15757
9.5996 1.14776
9.60195 1.14595
9.60429 1.13375
9.60664 1.11844
9.60898 1.11068
9.61133 1.11304
9.61367 1.09625
9.61602 1.06995
9.61837 1.06675
9.62071 1.07734
9.62306 1.09371
9.6254 1.08329
9.62775 1.09154
9.63009 1.07582
9.63244 1.07363
9.63478 1.07586
9.63713 1.06371
9.63947 1.04955
9.64182 1.02958
9.64416 1.02436
9.64651 1.0391
9.64886 1.0538
9.6512 1.05846
9.65355 1.03468
9.65589 1.00984
9.65824 1.01364
9.66058 1.01846
9.66293 1.04365
9.66527 1.04668
9.66762 1.04688
9.66996 1.02159
9.67231 0.992451
9.67465 0.978329
9.677 0.984617
9.67934 1.00204
9.68169 1.00721
9.68404 0.994521
9.68638 0.994038
9.68873 1.00753
9.69107 1.00921
9.69342 1.00043
9.69576 0.999457
9.69811 1.01111
9.70045 1.01193
9.7028 0.981861
9.70514 0.984339
9.70749 0.979752
9.70983 0.973431
9.71218 0.978284
9.71453 0.98287
9.71687 0.980609
9.71922 0.98452
9.72156 1.00394
9.72391 0.983832
9.72625 0.963691
9.7286 0.966175
9.73094 0.98006
9.73329 1.0001
9.73563 1.01193
9.73798 1.00324
9.74032 0.978409
9.74267 0.960946
9.74502 0.990746
9.74736 1.01149
9.74971 1.00568
9.75205 0.990297
9.7544 0.984746
9.75674 1.00278
9.75909 1.03095
9.76143 1.03921
9.76378 1.04872
9.76612 1.04666
9.76847 1.02954
9.77081 1.03374
9.77316 1.04074
9.77551 1.02302
9.77785 1.006
9.7802 1.03147
9.78254 1.08186
9.78489 1.1038
9.78723 1.07601
9.78958 1.04918
9.79192 1.03665
9.79427 1.05039
9.79661 1.06224
9.79896 1.06649
9.8013 1.07909
9.80365 1.07948
9.80599 1.06067
9.80834 1.01807
9.81069 1.0312
9.81303 1.04525
9.81538 1.0409
9.81772 1.01436
9.82007 0.991243
9.82241 1.0008
9.82476 1.01534
9.8271 1.0179
9.82945 0.995111
9.83179 0.982471
9.83414 0.983128
9.83648 0.988954
9.83883 0.991463
9.84118 0.985589
9.84352 0.97489
9.84587 0.974485
9.84821 0.954867
9.85056 0.9599
9.8529 0.952871
9.85525 0.948895
9.85759 0.942748
9.85994 0.941579
9.86228 0.952709
9.86463 0.964033
9.86697 0.96166
9.86932 0.961755
9.87167 0.945533
9.87401 0.955263
9.87636 0.951768
9.8787 0.935868
9.88105 0.929299
9.88339 0.949399
9.88574 0.983709
9.88808 0.971857
9.89043 0.95981
9.89277 0.952348
9.89512 0.93527
9.89746 0.950942
9.89981 0.962276
9.90216 0.953101
9.9045 0.938504
9.90685 0.927314
9.90919 0.936638
9.91154 0.95465
9.91388 0.94239
9.91623 0.936512
9.91857 0.943521
9.92092 0.957337
9.92326 0.958604
9.92561 0.948544
9.92795 0.952947
9.9303 0.947836
9.93264 0.952327
9.93499 0.945061
9.93734 0.929324
9.93968 0.91997
9.94203 0.927934
9.94437 0.937346
9.94672 0.937205
9.94906 0.945529
9.95141 0.963409
9.95375 0.958491
9.9561 0.955551
9.95844 0.932555
9.96079 0.901528
9.96313 0.90502
9.96548 0.924282
9.96783 0.933975
9.97017 0.951712
9.97252 0.951092
9.97486 0.948852
9.97721 0.958705
9.97955 0.967341
9.9819 0.949931
9.98424 0.933801
9.98659 0.922816
9.98893 0.911137
9.99128 0.907102
9.99362 0.902631
9.99597 0.91008
9.99832 0.911917
10.0007 0.898666
10.003 0.892741
10.0054 0.91921
10.0077 0.92952
10.01 0.902791
10.0124 0.88929
10.0147 0.902741
10.0171 0.915496
10.0194 0.934036
10.0218 0.924251
10.0241 0.913296
10.0265 0.892704
10.0288 0.893581
10.0312 0.913518
10.0335 0.911017
10.0358 0.897457
10.0382 0.924289
10.0405 0.905484
10.0429 0.878658
10.0452 0.87887
10.0476 0.891693
10.0499 0.901882
10.0523 0.917339
10.0546 0.939074
10.0569 0.938751
10.0593 0.934358
10.0616 0.90578
10.064 0.916443
10.0663 0.928538
10.0687 0.92821
10.071 0.932105
10.0734 0.935569
10.0757 0.91981
10.0781 0.899223
10.0804 0.931984
10.0827 0.941176
10.0851 0.894908
10.0874 0.884099
10.0898 0.895551
10.0921 0.92557
10.0945 0.947987
10.0968 0.943975
10.0992 0.925506
10.1015 0.912512
10.1039 0.939299
10.1062 0.921665
10.1085 0.927006
10.1109 0.927609
10.1132 0.932786
10.1156 0.948689
10.1179 0.959712
10.1203 0.954563
10.1226 0.953846
10.125 0.962579
10.1273 0.955639
10.1297 0.956033
10.132 0.971483
10.1343 0.966315
10.1367 0.953212
10.139 0.952386
10.1414 0.963135
10.1437 0.972627
10.1461 0.981203
10.1484 0.99901
10.1508 0.997593
10.1531 1.00076
10.1555 1.00826
10.1578 1.01667
10.1601 1.03081
10.1625 1.03665
10.1648 1.01774
10.1672 1.00297
10.1695 1.02217
10.1719 1.04476
10.1742 1.06846
10.1766 1.07706
10.1789 1.06984
10.1813 1.06233
10.1836 1.06438
10.1859 1.0787
10.1883 1.09625
10.1906 1.07674
10.193 1.06791
10.1953 1.10623
10.1977 1.11557
10.2 1.09297
10.2024 1.0832
10.2047 1.09586
10.2071 1.10888
10.2094 1.11753
10.2117 1.14369
10.2141 1.1276
10.2164 1.09192
10.2188 1.11501
10.2211 1.10996
10.2235 1.09207
10.2258 1.08183
10.2282 1.09008
10.2305 1.10286
10.2329 1.09953
10.2352 1.10868
10.2375 1.12547
10.2399 1.12497
10.2422 1.13758
10.2446 1.13021
10.2469 1.11623
10.2493 1.09745
10.2516 1.08378
10.254 1.09203
10.2563 1.11377
10.2587 1.11935
10.261 1.13333
10.2633 1.13997
10.2657 1.13949
10.268 1.13566
10.2704 1.12687
10.2727 1.1238
10.2751 1.12716
10.2774 1.13026
10.2798 1.14238
10.2821 1.11339
10.2845 1.09295
10.2868 1.12187
10.2891 1.11545
10.2915 1.08855
10.2938 1.09117
10.2962 1.11994
10.2985 1.13138
10.3009 1.1112
10.3032 1.09906
10.3056 1.10733
10.3079 1.11355
10.3102 1.08373
10.3126 1.06827
10.3149 1.06018
10.3173 1.06324
10.3196 1.0777
10.322 1.07733
10.3243 1.04097
10.3267 1.02783
10.329 1.05856
10.3314 1.0194
10.3337 1.01257
10.336 1.04444
10.3384 1.07077
10.3407 1.06767
10.3431 1.04495
10.3454 1.03148
10.3478 1.04157
10.3501 1.03072
10.3525 1.02997
10.3548 0.997583
10.3572 0.98549
10.3595 1.01075
10.3618 1.03992
10.3642 1.05001
10.3665 1.03736
10.3689 1.01232
10.3712 0.996571
10.3736 0.999865
10.3759 1.02434
10.3783 1.01482
10.3806 0.980747
10.383 0.977995
10.3853 0.994619
10.3876 1.01093
10.39 1.02172
10.3923 1.02117
10.3947 0.997085
10.397 0.970782
10.3994 0.983005
10.4017 1.00737
10.4041 0.996694
10.4064 0.981061
10.4088 0.981568
10.4111 0.99159
10.4134 0.996879
10.4158 0.992044
10.4181 0.979435
10.4205 0.97301
10.4228 0.979072
10.4252 0.97412
10.4275 0.967323
10.4299 0.963964
10.4322 0.956387
10.4346 0.948322
10.4369 0.949551
10.4392 0.955214
10.4416 0.947323
10.4439 0.941775
10.4463 0.956264
10.4486 0.962436
10.451 0.970429
10.4533 0.968777
10.4557 0.985019
10.458 0.992119
10.4604 0.974695
10.4627 0.955241
10.465 0.943078
10.4674 0.958365
10.4697 0.974882
10.4721 1.00115
10.4744 0.995419
10.4768 0.994157
10.4791 0.982026
10.4815 0.971369
10.4838 0.974931
10.4862 0.986735
10.4885 0.996525
10.4908 0.986601
10.4932 0.993629
10.4955 0.964962
10.4979 0.951229
10.5002 0.96143
10.5026 0.97879
10.5049 1.00128
10.5073 1.00822
10.5096 0.985494
10.512 0.961579
10.5143 0.961172
10.5166 0.957077
10.519 0.966978
10.5213 0.991377
10.5237 1.00496
10.526 0.997865
10.5284 0.990195
10.5307 0.990615
10.5331 0.992031
10.5354 0.993604
10.5378 1.00876
10.5401 1.0439
10.5424 1.01138
10.5448 1.00476
10.5471 0.998207
10.5495 0.98477
10.5518 0.988755
10.5542 1.0024
10.5565 1.00959
10.5589 1.01385
10.5612 1.01773
10.5635 1.00082
10.5659 1.00176
10.5682 0.992443
10.5706 0.979894
10.5729 0.985728
10.5753 0.987861
10.5776 0.975585
10.58 0.975818
10.5823 0.994053
10.5847 0.993708
10.587 0.990256
10.5893 1.00875
10.5917 1.00548
10.594 1.01289
10.5964 1.00073
10.5987 0.985414
10.6011 0.970963
10.6034 0.96967
10.6058 0.97602
10.6081 0.970414
10.6105 0.960918
10.6128 0.949993
10.6151 0.928987
10.6175 0.940577
10.6198 0.944995
10.6222 0.962699
10.6245 0.973551
10.6269 0.991644
10.6292 0.996002
10.6316 0.975528
10.6339 0.976813
10.6363 0.990919
10.6386 0.982991
10.6409 0.968861
10.6433 0.95697
10.6456 0.968249
10.648 0.978613
10.6503 0.990115
10.6527 0.982865
10.655 0.960928
10.6574 0.963185
10.6597 0.989894
10.6621 0.97861
10.6644 0.974581
10.6667 0.967887
10.6691 0.970647
10.6714 0.977211
10.6738 0.99996
10.6761 1.00758
10.6785 0.993772
10.6808 0.983912
10.6832 0.988015
10.6855 0.992717
10.6879 1.0179
10.6902 1.01569
10.6925 1.01261
10.6949 1.02141
10.6972 1.02039
10.6996 1.0044
10.7019 1.00907
10.7043 1.02799
10.7066 1.03156
10.709 1.02832
10.7113 1.03032
10.7137 1.03924
10.716 1.04594
10.7183 1.04142
10.7207 1.02732
10.723 1.03267
10.7254 1.0427
10.7277 1.03642
10.7301 1.03391
10.7324 1.04011
10.7348 1.02152
10.7371 1.03058
10.7395 1.03251
10.7418 1.01669
10.7441 1.00714
10.7465 1.01983
10.7488 1.04447
10.7512 1.04804
10.7535 1.03903
10.7559 1.03005
10.7582 1.02237
10.7606 1.02846
10.7629 1.03782
10.7653 1.0278
10.7676 1.0466
10.7699 1.05789
10.7723 1.04458
10.7746 1.03062
10.777 1.02221
10.7793 1.01973
10.7817 1.02766
10.784 1.04741
10.7864 1.05811
10.7887 1.0176
10.7911 0.988351
10.7934 1.03539
10.7957 1.07994
10.7981 1.08887
10.8004 1.0698
10.8028 1.05121
10.8051 1.03868
10.8075 1.02879
10.8098 1.02624
10.8122 1.03068
10.8145 1.02866
10.8168 1.0471
10.8192 1.01604
10.8215 1.01933
10.8239 1.01717
10.8262 1.0187
10.8286 1.01383
10.8309 1.02371
10.8333 1.04127
10.8356 1.03944
10.838 1.03519
10.8403 1.04415
10.8426 1.00049
10.845 1.02545
10.8473 1.01154
10.8497 1.03259
10.852 1.0144
10.8544 0.976538
10.8567 0.967741
10.8591 0.988966
10.8614 1.00243
10.8638 1.00022
10.8661 1.0194
10.8684 1.01199
10.8708 0.993341
10.8731 1.0119
10.8755 1.01203
10.8778 0.999222
10.8802 1.00362
10.8825 0.994241
10.8849 0.989942
10.8872 1.00176
10.8896 0.987088
10.8919 0.955735
10.8942 0.950857
10.8966 0.9737
10.8989 0.971004
10.9013 0.96115
10.9036 0.994118
10.906 1.01787
10.9083 1.01491
10.9107 1.00534
10.913 0.99586
10.9154 0.973335
10.9177 0.953012
10.92 0.982511
10.9224 0.98122
10.9247 0.966644
10.9271 0.949163
10.9294 0.945448
10.9318 0.939
10.9341 0.945291
10.9365 0.959959
10.9388 0.967876
10.9412 0.970086
10.9435 0.974026
10.9458 0.96911
10.9482 0.965787
10.9505 1.00477
10.9529 1.01363
10.9552 0.984121
10.9576 0.949303
10.9599 0.95344
10.9623 0.974968
10.9646 0.997198
10.967 1.00587
10.9693 0.988152
10.9716 0.969787
10.974 0.991308
10.9763 0.97845
10.9787 0.951595
10.981 0.963093
10.9834 0.981444
10.9857 0.973149
10.9881 0.963965
10.9904 0.973909
10.9928 0.987569
10.9951 0.996865
10.9974 1.01419
10.9998 1.03218
11.0021 1.03804
11.0045 1.02693
11.0068 1.04693
11.0092 1.0404
11.0115 1.03222
11.0139 1.04417
11.0162 1.04325
11.0186 1.02525
11.0209 1.01385
11.0232 1.01704
11.0256 1.02367
11.0279 1.03388
11.0303 1.04021
11.0326 1.05935
11.035 1.06541
11.0373 1.06473
11.0397 1.06667
11.042 1.07959
11.0444 1.1027
11.0467 1.10163
11.049 1.09587
11.0514 1.12116
11.0537 1.15185
11.0561 1.16485
11.0584 1.15947
11.0608 1.11915
11.0631 1.10785
11.0655 1.10937
11.0678 1.12049
11.0701 1.12332
11.0725 1.12664
11.0748 1.1368
11.0772 1.14745
11.0795 1.14225
11.0819 1.1283
11.0842 1.15475
11.0866 1.17686
11.0889 1.16779
11.0913 1.15187
11.0936 1.14957
11.0959 1.17463
11.0983 1.18971
11.1006 1.18664
11.103 1.17589
11.1053 1.16906
11.1077 1.16096
11.11 1.1471
11.1124 1.14458
11.1147 1.10918
11.1171 1.13193
11.1194 1.14699
11.1217 1.13561
11.1241 1.13347
11.1264 1.13531
11.1288 1.11324
11.1311 1.10571
11.1335 1.10187
11.1358 1.09474
11.1382 1.1133
11.1405 1.11237
11.1429 1.11506
11.1452 1.11191
11.1475 1.08036
11.1499 1.0695
11.1522 1.08215
11.1546 1.09602
11.1569 1.10091
11.1593 1.10287
11.1616 1.11731
11.164 1.12763
11.1663 1.11191
11.1687 1.09245
11.171 1.07231
11.1733 1.07335
11.1757 1.07919
11.178 1.09206
11.1804 1.11714
11.1827 1.07086
11.1851 1.04563
11.1874 1.04557
11.1898 1.04765
11.1921 1.05536
11.1945 1.0657
11.1968 1.04897
11.1991 1.00448
11.2015 1.00057
11.2038 1.01404
11.2062 1.03437
11.2085 1.04915
11.2109 1.04258
11.2132 1.05222
11.2156 1.06538
11.2179 1.06446
11.2203 1.07113
11.2226 1.07268
11.2249 1.06219
11.2273 1.09256
11.2296 1.08466
11.232 1.07948
11.2343 1.03967
11.2367 1.05193
11.239 1.04801
11.2414 1.01397
11.2437 1.03273
11.2461 1.05876
11.2484 1.06088
11.2507 1.0348
11.2531 1.00982
11.2554 1.01734
11.2578 1.01942
11.2601 1.03994
11.2625 1.07335
11.2648 1.08033
11.2672 1.07201
11.2695 1.09707
11.2719 1.09383
11.2742 1.07682
11.2765 1.06507
11.2789 1.05439
11.2812 1.04466
11.2836 1.05114
11.2859 1.06138
11.2883 1.03734
11.2906 1.05677
11.293 1.08948
11.2953 1.08486
11.2977 1.08604
11.3 1.08411
11.3023 1.1143
11.3047 1.12817
11.307 1.1175
11.3094 1.10557
11.3117 1.09601
11.3141 1.09279
11.3164 1.09893
11.3188 1.07996
11.3211 1.09974
11.3234 1.08456
11.3258 1.07652
11.3281 1.06824
11.3305 1.05615
11.3328 1.07027
11.3352 1.08459
11.3375 1.09122
11.3399 1.10268
11.3422 1.12515
11.3446 1.14616
11.3469 1.14538
11.3492 1.12408
11.3516 1.11997
11.3539 1.08673
11.3563 1.11192
11.3586 1.13115
11.361 1.15032
11.3633 1.13883
11.3657 1.14073
11.368 1.14986
11.3704 1.1247
11.3727 1.08877
11.375 1.09218
11.3774 1.12466
11.3797 1.14967
11.3821 1.16002
11.3844 1.13888
11.3868 1.12496
11.3891 1.12181
11.3915 1.10152
11.3938 1.09927
11.3962 1.09492
11.3985 1.10133
11.4008 1.10911
11.4032 1.09728
11.4055 1.08407
11.4079 1.09597
11.4102 1.10434
11.4126 1.07908
11.4149 1.06644
11.4173 1.05731
11.4196 1.06051
11.422 1.06396
11.4243 1.05115
11.4266 1.03158
11.429 1.03109
11.4313 1.03374
11.4337 1.04248
11.436 1.04733
11.4384 1.03182
11.4407 1.01772
11.4431 1.02444
11.4454 1.01774
11.4478 1.01742
11.4501 1.04145
11.4524 1.05843
11.4548 1.03933
11.4571 1.01655
11.4595 1.01995
11.4618 1.0294
11.4642 1.03112
11.4665 1.03132
11.4689 1.03833
11.4712 1.04344
11.4736 1.03242
11.4759 1.01645
11.4782 1.01175
11.4806 1.00755
11.4829 1.03524
11.4853 1.01644
11.4876 1.02466
11.49 1.04087
11.4923 1.03519
11.4947 1.01003
11.497 1.00947
11.4994 1.01952
11.5017 1.0184
11.504 1.01739
11.5064 1.01749
11.5087 1.02663
11.5111 1.05396
11.5134 1.05731
11.5158 1.01919
11.5181 1.03687
11.5205 1.04125
11.5228 1.04237
11.5252 1.02863
11.5275 1.03449
11.5298 1.0651
11.5322 1.07969
11.5345 1.068
11.5369 1.04948
11.5392 1.03572
11.5416 1.04868
11.5439 1.04577
11.5463 0.998126
11.5486 0.999468
11.551 1.0336
11.5533 1.02519
11.5556 1.03059
11.558 1.0335
11.5603 1.01841
11.5627 1.01167
11.565 1.02009
11.5674 1.02339
11.5697 1.0142
11.5721 1.01364
11.5744 1.03031
11.5767 1.02483
11.5791 1.0363
11.5814 1.05065
11.5838 1.08495
11.5861 1.06077
11.5885 1.04115
11.5908 1.03892
11.5932 1.03877
11.5955 1.02126
11.5979 1.00646
11.6002 0.99142
11.6025 0.991223
11.6049 1.01579
11.6072 1.02503
11.6096 1.04508
11.6119 1.03889
11.6143 1.01206
11.6166 0.995736
11.619 1.00765
11.6213 1.03977
11.6237 1.0324
11.626 1.02406
11.6283 1.02673
11.6307 1.0256
11.633 1.02663
11.6354 1.0153
11.6377 0.986447
11.6401 0.989518
11.6424 1.03882
11.6448 1.05421
11.6471 1.04109
11.6495 1.04885
11.6518 1.03855
11.6541 1.0568
11.6565 1.07529
11.6588 1.06621
11.6612 1.04797
11.6635 1.03865
11.6659 1.02965
11.6682 1.00715
11.6706 0.979757
11.6729 0.982562
11.6753 1.01243
11.6776 1.00532
11.6799 0.981205
11.6823 1.01412
11.6846 1.00668
11.687 0.995171
11.6893 1.02832
11.6917 1.03019
11.694 1.01391
11.6964 1.01195
11.6987 1.01928
11.7011 1.02808
11.7034 1.02982
11.7057 1.03689
11.7081 1.05037
11.7104 1.04959
11.7128 1.04595
11.7151 1.05635
11.7175 1.04984
11.7198 1.04598
11.7222 1.05528
11.7245 1.0538
11.7269 1.05364
11.7292 1.05315
11.7315 1.03557
11.7339 1.03912
11.7362 1.05507
11.7386 1.06107
11.7409 1.04857
11.7433 1.04333
11.7456 1.06425
11.748 1.08185
11.7503 1.07399
11.7527 1.04192
11.755 1.02217
11.7573 1.03264
11.7597 1.04143
11.762 1.08682
11.7644 1.07389
11.7667 1.06982
11.7691 1.05819
11.7714 1.04615
11.7738 1.05227
11.7761 1.05558
11.7785 1.04245
11.7808 1.03377
11.7831 1.04386
11.7855 1.05095
11.7878 1.02853
11.7902 1.01266
11.7925 1.01293
11.7949 1.01347
11.7972 1.03147
11.7996 1.05617
11.8019 1.05807
11.8043 1.04259
11.8066 1.02657
11.8089 1.01008
11.8113 1.00604
11.8136 1.00049
11.816 0.99905
11.8183 1.01362
11.8207 1.02586
11.823 1.02878
11.8254 1.02372
11.8277 1.00975
11.83 0.986974
11.8324 0.980389
11.8347 1.00112
11.8371 1.03839
11.8394 1.01831
11.8418 0.990358
11.8441 0.983358
11.8465 1.00471
11.8488 1.00282
11.8512 0.997774
11.8535 0.993803
11.8558 0.982944
11.8582 0.99058
11.8605 1.00204
11.8629 0.997065
11.8652 1.00859
11.8676 1.00312
11.8699 0.987022
11.8723 0.968664
11.8746 0.964565
11.877 0.975658
11.8793 0.990841
11.8816 0.965908
11.884 0.972064
11.8863 0.983659
11.8887 0.977126
11.891 0.964436
11.8934 0.973463
11.8957 0.995159
11.8981 0.97892
11.9004 0.933752
11.9028 0.927823
11.9051 0.940245
11.9074 0.946671
11.9098 0.93095
11.9121 0.93615
11.9145 0.953275
11.9168 0.967466
11.9192 0.956681
11.9215 0.949572
11.9239 0.940094
11.9262 0.955159
11.9286 0.956866
11.9309 0.928309
11.9332 0.904027
11.9356 0.907822
11.9379 0.923131
11.9403 0.91564
11.9426 0.901226
11.945 0.902689
11.9473 0.915177
11.9497 0.892617
11.952 0.923227
11.9544 0.924452
11.9567 0.900993
11.959 0.924651
11.9614 0.959799
11.9637 0.949871
11.9661 0.925139
11.9684 0.929021
11.9708 0.928311
11.9731 0.923977
11.9755 0.930749
11.9778 0.923562
11.9802 0.920538
11.9825 0.920754
11.9848 0.916917
11.9872 0.921098
11.9895 0.933534
11.9919 0.914414
11.9942 0.927206
11.9966 0.912743
11.9989 0.915035
12.0013 0.896423
12.0036 0.872437
12.006 0.867309
12.0083 0.886536
12.0106 0.90278
12.013 0.910895
12.0153 0.91757
12.0177 0.902794
12.02 0.870676
12.0224 0.873817
12.0247 0.913804
12.0271 0.95354
12.0294 0.942842
12.0318 0.936419
12.0341 0.893136
12.0364 0.89068
12.0388 0.898128
12.0411 0.915866
12.0435 0.930577
12.0458 0.924226
12.0482 0.947063
12.0505 0.936158
12.0529 0.919327
12.0552 0.923756
12.0576 0.939264
12.0599 0.962895
12.0622 0.969941
12.0646 0.956818
12.0669 0.937123
12.0693 0.938356
12.0716 0.945222
12.074 0.920833
12.0763 0.901379
12.0787 0.893483
12.081 0.881603
12.0833 0.904068
12.0857 0.919578
12.088 0.974722
12.0904 0.963525
12.0927 0.914588
12.0951 0.897888
12.0974 0.914184
12.0998 0.944126
12.1021 0.954486
12.1045 0.93272
12.1068 0.933664
12.1091 0.958342
12.1115 0.948754
12.1138 0.911793
12.1162 0.884438
12.1185 0.944744
12.1209 0.937025
12.1232 0.936384
12.1256 0.939329
12.1279 0.95019
12.1303 0.952789
12.1326 0.961669
12.1349 0.984284
12.1373 0.977779
12.1396 0.957518
12.142 0.95982
12.1443 0.961467
12.1467 0.956191
12.149 0.977102
12.1514 0.983264
12.1537 0.938897
12.1561 0.952832
12.1584 0.994696
12.1607 0.999646
12.1631 0.959445
12.1654 0.950124
12.1678 0.946533
12.1701 0.948193
12.1725 0.951876
12.1748 0.956809
12.1772 0.959369
12.1795 0.962675
12.1819 0.974736
12.1842 0.98412
12.1865 0.991888
12.1889 0.990152
12.1912 0.986243
12.1936 0.988213
12.1959 0.999599
12.1983 1.03068
12.2006 1.01757
12.203 0.996329
12.2053 0.949012
12.2077 1.00052
12.21 1.00349
12.2123 0.990985
12.2147 1.0446
12.217 1.01302
12.2194 1.02205
12.2217 1.0154
12.2241 1.01442
12.2264 1.03168
12.2288 1.05314
12.2311 1.02824
12.2335 1.00577
12.2358 1.01463
12.2381 1.0226
12.2405 1.03056
12.2428 1.04776
12.2452 1.05523
12.2475 1.05072
12.2499 1.04642
12.2522 1.05571
12.2546 1.06554
12.2569 1.06282
12.2593 1.00912
12.2616 0.997815
12.2639 0.984972
12.2663 0.984632
12.2686 1.00221
12.271 1.01715
12.2733 1.00095
12.2757 0.987958
12.278 0.990851
12.2804 0.972988
12.2827 0.952701
12.2851 0.956223
12.2874 0.96686
12.2897 0.967302
12.2921 0.965066
12.2944 0.963406
12.2968 0.947
12.2991 0.965474
12.3015 0.994409
12.3038 0.9989
12.3062 0.967086
12.3085 0.939805
12.3109 0.981191
12.3132 0.989732
12.3155 0.966271
12.3179 0.972871
12.3202 0.994343
12.3226 1.00701
12.3249 1.02312
12.3273 0.998239
12.3296 0.980388
12.332 0.991844
12.3343 0.998001
12.3366 0.988417
12.339 0.981977
12.3413 0.982134
12.3437 0.988185
12.346 1.01675
12.3484 1.0415
12.3507 1.03649
12.3531 1.0039
12.3554 0.975004
12.3578 0.982393
12.3601 1.01461
12.3624 1.0532
12.3648 1.02839
12.3671 1.00679
12.3695 0.985604
12.3718 0.986653
12.3742 1.00958
12.3765 0.987455
12.3789 0.984412
12.3812 1.00389
12.3836 1.02087
12.3859 1.01773
12.3882 1.01024
12.3906 1.01698
12.3929 1.03384
12.3953 1.0503
12.3976 1.05767
12.4 1.06778
12.4023 1.02921
12.4047 1.02667
12.407 1.00802
12.4094 0.988601
12.4117 1.00435
12.414 1.00071
12.4164 1.01171
12.4187 0.993142
12.4211 0.999612
12.4234 1.00565
12.4258 1.03012
12.4281 1.0123
12.4305 0.998175
12.4328 0.992801
12.4352 0.980199
12.4375 0.965752
12.4398 0.972815
12.4422 0.990763
12.4445 0.988438
12.4469 0.96904
12.4492 0.963603
12.4516 0.972676
12.4539 0.968917
12.4563 0.969091
12.4586 0.950636
12.461 0.975316
12.4633 1.0213
12.4656 0.993597
12.468 0.963358
12.4703 0.976307
12.4727 0.987033
12.475 0.990695
12.4774 0.9592
12.4797 0.953127
12.4821 0.972669
12.4844 0.965608
12.4868 0.950922
12.4891 0.934593
12.4914 0.926707
12.4938 0.924287
12.4961 0.953656
12.4985 0.977607
12.5008 0.954173
12.5032 0.9346
12.5055 0.953442
12.5079 0.974658
12.5102 0.969632
12.5126 0.948214
12.5149 0.955939
12.5172 0.96554
12.5196 0.940411
12.5219 0.934494
12.5243 0.90012
12.5266 0.926611
12.529 0.946619
12.5313 0.944413
12.5337 0.95771
12.536 0.954403
12.5384 0.942777
12.5407 0.938157
12.543 0.963554
12.5454 0.946442
12.5477 0.944651
12.5501 0.976868
12.5524 0.990694
12.5548 0.969654
12.5571 0.952512
12.5595 0.963372
12.5618 0.950814
12.5642 0.932486
12.5665 0.957301
12.5688 0.950951
12.5712 0.923286
12.5735 0.902065
12.5759 0.896117
12.5782 0.930405
12.5806 0.968372
12.5829 0.975106
12.5853 0.932776
12.5876 0.907994
12.59 0.908856
12.5923 0.925912
12.5946 0.932988
12.597 0.935276
12.5993 0.958209
12.6017 0.988659
12.604 0.978357
12.6064 0.968412
12.6087 0.949815
12.6111 0.946531
12.6134 0.955265
12.6157 0.95101
12.6181 0.96033
12.6204 0.97236
12.6228 0.937601
12.6251 0.893303
12.6275 0.892762
12.6298 0.906581
12.6322 0.907561
12.6345 0.906454
12.6369 0.925987
12.6392 0.956432
12.6415 0.966954
12.6439 0.96965
12.6462 0.946375
12.6486 0.947054
12.6509 0.954482
12.6533 0.947561
12.6556 0.925123
12.658 0.905657
12.6603 0.918416
12.6627 0.938414
12.665 0.950893
12.6673 0.972025
12.6697 0.939532
12.672 0.941195
12.6744 0.947895
12.6767 0.935248
12.6791 0.930742
12.6814 0.940984
12.6838 0.934703
12.6861 0.920254
12.6885 0.920863
12.6908 0.936994
12.6931 0.972331
12.6955 0.997454
12.6978 0.981732
12.7002 0.949214
12.7025 0.924992
12.7049 0.940015
12.7072 0.942113
12.7096 0.933743
12.7119 0.917732
12.7143 0.893922
12.7166 0.918379
12.7189 0.92838
12.7213 0.942796
12.7236 0.929156
12.726 0.874142
12.7283 0.869561
12.7307 0.872493
12.733 0.906743
12.7354 0.93177
12.7377 0.914772
12.7401 0.912967
12.7424 0.91428
12.7447 0.907873
12.7471 0.925033
12.7494 0.94994
12.7518 0.943457
12.7541 0.940944
12.7565 0.946824
12.7588 0.936093
12.7612 0.909634
12.7635 0.910687
12.7659 0.925544
12.7682 0.926702
12.7705 0.932868
12.7729 0.938633
12.7752 0.931823
12.7776 0.901436
12.7799 0.916902
12.7823 0.955053
12.7846 0.953803
12.787 0.919838
12.7893 0.915365
12.7917 0.924556
12.794 0.908654
12.7963 0.928684
12.7987 0.914445
12.801 0.904699
12.8034 0.928874
12.8057 0.950017
12.8081 0.948117
12.8104 0.954062
12.8128 0.930413
12.8151 0.901252
12.8175 0.887032
12.8198 0.900996
12.8221 0.947568
12.8245 0.954216
12.8268 0.921879
12.8292 0.944158
12.8315 0.958043
12.8339 0.945929
12.8362 0.944148
12.8386 0.933468
12.8409 0.927989
12.8433 0.930937
12.8456 0.922183
12.8479 0.924019
12.8503 0.935979
12.8526 0.937795
12.855 0.949417
12.8573 0.981228
12.8597 0.997079
12.862 0.956241
12.8644 0.906566
12.8667 0.915793
12.869 0.964161
12.8714 0.963382
12.8737 0.955441
12.8761 0.966686
12.8784 0.976924
12.8808 0.994709
12.8831 0.982422
12.8855 0.976621
12.8878 0.965886
12.8902 0.974441
12.8925 0.968398
12.8948 0.964793
12.8972 0.996619
12.8995 1.01414
12.9019 0.976406
12.9042 0.953634
12.9066 0.945985
12.9089 0.964958
12.9113 0.956101
12.9136 0.970259
12.916 0.982805
12.9183 0.996903
12.9206 0.98088
12.923 0.947863
12.9253 0.983308
12.9277 1.02617
12.93 1.00812
12.9324 0.97535
12.9347 0.956203
12.9371 0.961688
12.9394 0.988251
12.9418 1.0019
12.9441 0.990238
12.9464 0.96432
12.9488 0.970474
12.9511 0.995496
12.9535 0.991498
12.9558 0.98369
12.9582 1.00671
12.9605 1.03638
12.9629 0.990108
12.9652 0.968938
12.9676 0.942656
12.9699 0.98551
12.9722 1.04231
12.9746 1.02527
12.9769 1.01847
12.9793 1.03668
12.9816 1.00779
12.984 1.00295
12.9863 0.994272
12.9887 1.01531
12.991 0.986663
12.9934 0.980866
12.9957 0.992806
12.998 1.02008
13.0004 1.02107
13.0027 0.987135
13.0051 0.958606
13.0074 0.954628
13.0098 0.973526
13.0121 1.00638
13.0145 1.01865
13.0168 1.01387
13.0192 0.992599
13.0215 1.0014
13.0238 1.01819
13.0262 1.01587
13.0285 1.00907
13.0309 1.00658
13.0332 0.987933
13.0356 0.972966
13.0379 0.988207
13.0403 1.01567
13.0426 1.02095
13.045 0.999152
13.0473 0.991024
13.0496 1.01026
13.052 1.02072
13.0543 1.00152
13.0567 1.01085
13.059 1.03937
13.0614 1.01874
13.0637 0.971066
13.0661 0.986843
13.0684 1.0083
13.0708 0.993639
13.0731 1.00519
13.0754 0.984994
13.0778 0.988376
13.0801 1.02636
13.0825 1.02984
13.0848 1.0326
13.0872 1.02824
13.0895 0.987005
13.0919 1.02447
13.0942 1.00274
13.0966 0.985701
13.0989 1.00667
13.1012 1.03034
13.1036 1.01921
13.1059 0.992408
13.1083 0.985662
13.1106 1.0166
13.113 1.02635
13.1153 1.02103
13.1177 1.01105
13.12 1.00794
13.1223 1.02221
13.1247 1.04308
13.127 1.04202
13.1294 1.02409
13.1317 1.05071
13.1341 1.03901
13.1364 1.02323
13.1388 1.00959
13.1411 0.979381
13.1435 0.967314
13.1458 1.00013
13.1481 1.02942
13.1505 1.05048
13.1528 1.06785
13.1552 1.05057
13.1575 1.04535
13.1599 1.06712
13.1622 1.07852
13.1646 1.08005
13.1669 1.06944
13.1693 1.04466
13.1716 1.03718
13.1739 1.04149
13.1763 1.04799
13.1786 1.05972
13.181 1.05685
13.1833 1.06218
13.1857 1.05234
13.188 1.03244
13.1904 1.0374
13.1927 1.05396
13.1951 1.05856
13.1974 1.05433
13.1997 1.02068
13.2021 1.02026
13.2044 1.03739
13.2068 1.03652
13.2091 1.00455
13.2115 0.996698
13.2138 1.00718
13.2162 1.02438
13.2185 1.05469
13.2209 1.07299
13.2232 1.04382
13.2255 1.01187
13.2279 1.01172
13.2302 1.01268
13.2326 1.00261
13.2349 1.04758
13.2373 1.07502
13.2396 1.05496
13.242 1.05823
13.2443 1.08921
13.2467 1.05418
13.249 0.977039
13.2513 0.964383
13.2537 0.998382
13.256 1.02561
13.2584 0.990414
13.2607 0.978687
13.2631 1.05532
13.2654 1.0342
13.2678 1.02706
13.2701 1.0343
13.2725 1.03339
13.2748 1.00363
13.2771 1.0093
13.2795 1.0209
13.2818 1.02447
13.2842 1.03198
13.2865 1.03304
13.2889 1.03529
13.2912 1.02078
13.2936 1.03689
13.2959 1.02955
13.2983 1.00216
13.3006 0.99407
13.3029 1.01142
13.3053 1.00304
13.3076 1.01205
13.31 1.00786
13.3123 1.00813
13.3147 0.991106
13.317 0.964441
13.3194 0.97864
13.3217 0.980101
13.3241 0.976119
13.3264 0.983951
13.3287 0.978789
13.3311 0.993265
13.3334 1.01139
13.3358 1.01073
13.3381 0.98539
13.3405 0.975134
13.3428 0.988877
13.3452 1.00942
13.3475 0.999271
13.3499 0.988462
13.3522 0.987626
13.3545 1.01102
13.3569 1.02515
13.3592 1.04548
13.3616 1.07039
13.3639 1.03321
13.3663 0.999156
13.3686 1.03861
13.371 1.05387
13.3733 1.0045
13.3756 0.969902
13.378 0.964297
13.3803 0.996806
13.3827 1.01355
13.385 0.992481
13.3874 0.989135
13.3897 0.998877
13.3921 1.02093
13.3944 1.00709
13.3968 0.986317
13.3991 1.00313
13.4014 1.02478
13.4038 1.04681
13.4061 1.05161
13.4085 1.03676
13.4108 1.01821
13.4132 1.01355
13.4155 1.00901
13.4179 0.993596
13.4202 0.983289
13.4226 1.00714
13.4249 1.02839
13.4272 1.04941
13.4296 1.02569
13.4319 0.989465
13.4343 0.988428
13.4366 0.989004
13.439 1.00346
13.4413 1.03055
13.4437 1.05625
13.446 1.02723
13.4484 1.0054
13.4507 1.01682
13.453 1.02499
13.4554 1.01215
13.4577 1.02164
13.4601 1.02404
13.4624 1.02169
13.4648 1.01886
13.4671 1.02235
13.4695 1.04579
13.4718 1.06861
13.4742 1.07024
13.4765 1.07925
13.4788 1.05319
13.4812 1.02875
13.4835 1.01431
13.4859 1.00997
13.4882 1.00571
13.4906 0.981549
13.4929 0.989277
13.4953 0.997925
13.4976 1.00717
13.5 1.03345
13.5023 1.02725
13.5046 0.978436
13.507 0.960949
13.5093 1.00088
13.5117 1.02398
13.514 0.978299
13.5164 0.958856
13.5187 0.975727
13.5211 0.982779
13.5234 0.972762
13.5258 0.996826
13.5281 1.01857
13.5304 1.03377
13.5328 1.0277
13.5351 1.05166
13.5375 1.03234
13.5398 1.04256
13.5422 1.04688
13.5445 1.04144
13.5469 1.02688
13.5492 1.03458
13.5516 1.02301
13.5539 1.00116
13.5562 1.00262
13.5586 1.04933
13.5609 1.08492
13.5633 1.05521
13.5656 1.0339
13.568 1.05026
13.5703 1.04739
13.5727 1.05396
13.575 1.04775
13.5774 1.037
13.5797 1.01703
13.582 1.0022
13.5844 0.996966
13.5867 1.0447
13.5891 1.05015
13.5914 0.990384
13.5938 0.956028
13.5961 1.00016
13.5985 1.00841
13.6008 1.04372
13.6032 1.06396
13.6055 1.02366
13.6078 1.03289
13.6102 1.04008
13.6125 1.02598
13.6149 1.04277
13.6172 1.05544
13.6196 1.0259
13.6219 1.03307
13.6243 1.02147
13.6266 1.03027
13.6289 1.06743
13.6313 1.05866
13.6336 1.0498
13.636 1.01858
13.6383 1.02215
13.6407 1.01874
13.643 0.997807
13.6454 1.02861
13.6477 1.02391
13.6501 1.02947
13.6524 1.03115
13.6547 1.04691
13.6571 1.06149
13.6594 1.04321
13.6618 1.00772
13.6641 1.02157
13.6665 1.05082
13.6688 1.04505
13.6712 1.02596
13.6735 0.990116
13.6759 0.995276
13.6782 1.02283
13.6805 1.05216
13.6829 1.04958
13.6852 1.00919
13.6876 0.964454
13.6899 0.958267
13.6923 0.985575
13.6946 0.989638
13.697 0.999589
13.6993 1.02854
13.7017 1.0254
13.704 1.00204
13.7063 1.00196
13.7087 1.0159
13.711 1.00551
13.7134 1.02543
13.7157 1.07352
13.7181 1.08618
13.7204 1.05452
13.7228 1.0337
13.7251 1.0426
13.7275 1.03941
13.7298 1.01106
13.7321 1.01466
13.7345 0.999033
13.7368 0.967719
13.7392 0.977833
13.7415 1.01421
13.7439 1.02488
13.7462 1.00351
13.7486 0.987586
13.7509 0.992505
13.7533 0.999421
13.7556 1.00418
13.7579 0.98146
13.7603 0.987314
13.7626 1.01937
13.765 1.0256
13.7673 1.00159
13.7697 1.00521
13.772 0.987291
13.7744 0.963599
13.7767 0.956049
13.7791 0.97408
13.7814 0.989365
13.7837 1.00887
13.7861 1.02601
13.7884 0.992234
13.7908 0.992904
13.7931 1.01659
13.7955 1.02078
13.7978 1.01584
13.8002 1.01501
13.8025 1.0365
13.8049 1.04896
13.8072 1.03438
13.8095 1.02839
13.8119 1.02945
13.8142 1.04322
13.8166 1.06783
13.8189 1.03863
13.8213 1.01123
13.8236 1.00615
13.826 1.03568
13.8283 1.02534
13.8307 1.00003
13.833 0.980812
13.8353 0.956962
13.8377 0.991262
13.84 0.988236
13.8424 1.01259
13.8447 1.03178
13.8471 1.05513
13.8494 1.05285
13.8518 1.03581
13.8541 0.975468
13.8565 0.997089
13.8588 1.01504
13.8611 1.00667
13.8635 1.04605
13.8658 0.99484
13.8682 0.972544
13.8705 0.965507
13.8729 1.01404
13.8752 1.03132
13.8776 1.00857
13.8799 0.986389
13.8822 0.997566
13.8846 1.01895
13.8869 0.992939
13.8893 1.01888
13.8916 1.02965
13.894 1.02257
13.8963 1.01854
13.8987 0.994695
13.901 0.981044
13.9034 0.975173
13.9057 0.976767
13.908 0.980556
13.9104 0.980104
13.9127 0.995425
13.9151 1.01112
13.9174 1.01304
13.9198 1.00447
13.9221 0.991381
13.9245 0.988535
13.9268 1.00538
13.9292 1.02062
13.9315 1.00604
13.9338 0.956537
13.9362 0.953959
13.9385 1.00909
13.9409 1.03966
13.9432 1.02142
13.9456 0.993838
13.9479 0.993341
13.9503 0.998133
13.9526 0.975795
13.955 0.996356
13.9573 0.999807
13.9596 0.983382
13.962 0.95886
13.9643 0.992844
13.9667 1.03826
13.969 1.05596
13.9714 1.04367
13.9737 1.04136
13.9761 1.05284
13.9784 1.0437
13.9808 1.04555
13.9831 1.00114
13.9854 0.967309
13.9878 0.995928
13.9901 0.957227
13.9925 0.965157
13.9948 0.989656
13.9972 0.988441
13.9995 0.998725
14.0019 1.00518
14.0042 1.00704
14.0066 1.0215
14.0089 1.04442
14.0112 0.994861
14.0136 0.937771
14.0159 0.959337
14.0183 1.03429
14.0206 1.08382
14.023 1.03907
14.0253 1.0023
14.0277 1.02415
14.03 1.04292
14.0324 1.02014
14.0347 1.01267
14.037 1.00428
14.0394 0.967068
14.0417 0.961244
14.0441 0.997623
14.0464 0.988544
14.0488 0.982038
14.0511 1.0095
14.0535 1.03005
14.0558 1.04331
14.0582 1.00538
14.0605 0.987983
14.0628 1.02781
14.0652 1.04198
14.0675 1.06331
14.0699 1.10695
14.0722 1.06387
14.0746 1.01768
14.0769 1.01454
14.0793 1.0413
14.0816 1.07163
14.084 1.10355
14.0863 1.07951
14.0886 1.10032
14.091 1.06917
14.0933 1.07267
14.0957 1.03652
14.098 1.02533
14.1004 1.00908
14.1027 1.04114
14.1051 1.01272
14.1074 1.02222
14.1098 0.991772
14.1121 0.954175
14.1144 0.937244
14.1168 1.00679
14.1191 1.02559
14.1215 1.01589
14.1238 0.982025
14.1262 0.987282
14.1285 0.979931
14.1309 1.01559
14.1332 1.04184
14.1355 1.01736
14.1379 1.00192
14.1402 1.0271
14.1426 1.03087
14.1449 1.0123
14.1473 1.01266
14.1496 1.02145
14.152 1.03511
14.1543 1.03932
14.1567 1.01185
14.159 1.02714
14.1613 1.05566
14.1637 1.05718
14.166 1.0166
14.1684 1.00101
14.1707 1.02561
14.1731 1.0326
14.1754 1.00314
14.1778 1.01005
14.1801 0.990462
14.1825 0.977932
14.1848 0.957802
14.1871 1.00544
14.1895 1.01078
14.1918 0.997193
14.1942 0.996151
14.1965 1.00312
14.1989 1.00163
14.2012 0.979166
14.2036 1.00102
14.2059 1.01547
14.2083 0.986143
14.2106 0.984512
14.2129 1.01112
14.2153 1.01339
14.2176 1.0059
14.22 0.989187
14.2223 1.0142
14.2247 1.04436
14.227 1.03097
14.2294 1.01475
14.2317 1.02487
14.2341 1.00988
14.2364 0.988888
14.2387 1.01914
14.2411 1.0195
14.2434 1.0115
14.2458 0.980979
14.2481 0.995371
14.2505 1.04036
14.2528 1.05331
14.2552 1.04632
14.2575 1.05845
14.2599 1.06075
14.2622 1.04895
14.2645 0.995064
14.2669 1.00235
14.2692 1.02535
14.2716 1.03274
14.2739 1.03812
14.2763 1.03775
14.2786 1.04757
14.281 1.05762
14.2833 1.07528
14.2857 1.08257
14.288 1.06944
14.2903 1.05058
14.2927 1.04728
14.295 1.05065
14.2974 1.0586
14.2997 1.087
14.3021 1.10802
14.3044 1.09429
14.3068 1.06985
14.3091 1.06779
14.3115 1.06465
14.3138 1.05431
14.3161 1.03756
14.3185 0.99667
14.3208 1.00408
14.3232 1.02233
14.3255 1.018
14.3279 1.04763
14.3302 1.04923
14.3326 1.01365
14.3349 1.01769
14.3373 1.00577
14.3396 1.01554
14.3419 1.00602
14.3443 1.01061
14.3466 1.01695
14.349 1.02205
14.3513 1.00949
14.3537 0.995176
14.356 1.00596
14.3584 1.00646
14.3607 1.02827
14.3631 1.06387
14.3654 1.06137
14.3677 1.00378
14.3701 1.00082
14.3724 1.03787
14.3748 1.04396
14.3771 1.03993
14.3795 1.06286
14.3818 1.04257
14.3842 1.02326
14.3865 1.0423
14.3888 1.02275
14.3912 0.97
14.3935 0.999167
14.3959 1.06717
14.3982 1.05102
14.4006 1.04531
14.4029 1.04291
14.4053 1.05802
14.4076 1.01093
14.41 0.989344
14.4123 0.981328
14.4146 0.991933
14.417 1.0105
14.4193 1.02038
14.4217 1.00673
14.424 1.02111
14.4264 1.03141
14.4287 1.00884
14.4311 1.0164
14.4334 1.05242
14.4358 1.02593
14.4381 1.00264
14.4404 0.989897
14.4428 0.984421
14.4451 0.98797
14.4475 0.981188
14.4498 0.976816
14.4522 0.978841
14.4545 1.00848
14.4569 0.991101
14.4592 0.997451
14.4616 1.0072
14.4639 0.996527
14.4662 0.98329
14.4686 0.982714
14.4709 0.953861
14.4733 0.942082
14.4756 0.983461
14.478 1.02648
14.4803 0.9925
14.4827 0.960116
14.485 0.972066
14.4874 0.955781
14.4897 0.972592
14.492 0.981607
14.4944 0.999151
14.4967 0.966261
14.4991 0.922452
14.5014 0.921285
14.5038 0.958669
14.5061 0.941502
14.5085 0.988841
14.5108 1.01044
14.5132 1.01086
14.5155 0.981821
14.5178 0.925566
14.5202 0.967798
14.5225 0.970019
14.5249 0.961686
14.5272 0.955566
14.5296 0.960607
14.5319 0.967998
14.5343 0.976187
14.5366 0.954382
14.539 0.948166
14.5413 0.960491
14.5436 0.949025
14.546 0.94447
14.5483 0.97008
14.5507 0.980357
14.553 0.963213
14.5554 0.955159
14.5577 0.966766
14.5601 0.991728
14.5624 1.01094
14.5648 0.983425
14.5671 0.962409
14.5694 0.976007
14.5718 1.00597
14.5741 0.998036
14.5765 0.962679
14.5788 0.918579
14.5812 0.9451
14.5835 0.971548
14.5859 0.952748
14.5882 0.964081
14.5906 0.992263
14.5929 1.00648
14.5952 0.994313
14.5976 0.989372
14.5999 0.969442
14.6023 0.978529
14.6046 0.949729
14.607 0.985805
14.6093 0.987937
14.6117 0.949809
14.614 0.941134
14.6164 0.94222
14.6187 0.953061
14.621 0.944076
14.6234 0.950165
14.6257 0.938797
14.6281 0.916103
14.6304 0.929751
14.6328 0.95638
14.6351 0.967534
14.6375 0.998074
14.6398 1.01169
14.6421 0.986675
14.6445 0.978631
14.6468 0.94823
14.6492 0.957673
14.6515 0.939551
14.6539 0.942983
14.6562 0.985493
14.6586 0.995459
14.6609 0.994016
14.6633 1.01174
14.6656 0.996717
14.6679 0.975628
14.6703 0.962779
14.6726 0.954565
14.675 0.964504
14.6773 0.969161
14.6797 0.944509
14.682 0.941184
14.6844 0.920703
14.6867 0.91792
14.6891 0.974525
14.6914 0.938929
14.6937 0.938115
14.6961 0.950794
14.6984 0.971463
14.7008 0.980717
14.7031 0.964763
14.7055 0.970877
14.7078 0.991292
14.7102 1.03487
14.7125 0.995217
14.7149 0.944132
14.7172 0.933815
14.7195 0.937308
14.7219 0.959429
14.7242 0.962908
14.7266 0.93398
14.7289 0.935314
14.7313 0.923747
14.7336 0.963689
14.736 1.01717
14.7383 1.00363
14.7407 0.994956
14.743 0.968753
14.7453 0.985419
14.7477 0.975305
14.75 0.935276
14.7524 0.919939
14.7547 0.90384
14.7571 0.914704
14.7594 0.957565
14.7618 0.97129
14.7641 0.967202
14.7665 0.958862
14.7688 0.958926
14.7711 0.987157
14.7735 0.980788
14.7758 0.954527
14.7782 0.953009
14.7805 0.985935
14.7829 0.997653
14.7852 1.01313
14.7876 0.990646
14.7899 0.971508
14.7923 0.964902
14.7946 0.987116
14.7969 0.975431
14.7993 0.952838
14.8016 0.937853
14.804 0.980593
14.8063 1.00412
14.8087 0.968695
14.811 0.994343
14.8134 0.983023
14.8157 0.912003
14.8181 0.91747
14.8204 0.937859
14.8227 0.942851
14.8251 0.954222
14.8274 0.931143
14.8298 0.959202
14.8321 0.961137
14.8345 0.953269
14.8368 0.960851
14.8392 0.956108
14.8415 0.922443
14.8439 0.935109
14.8462 0.993391
14.8485 1.02953
14.8509 1.00976
14.8532 0.997162
14.8556 0.975377
14.8579 0.967796
14.8603 0.975194
14.8626 0.977978
14.865 0.96418
14.8673 0.967078
14.8697 0.986454
14.872 1.01036
14.8743 1.00144
14.8767 1.01016
14.879 0.981605
14.8814 0.981113
14.8837 0.963477
14.8861 0.920141
14.8884 0.934002
14.8908 0.948453
14.8931 0.968688
14.8954 0.938067
14.8978 0.950083
14.9001 0.948213
14.9025 0.946976
14.9048 0.960983
14.9072 0.953279
14.9095 0.942816
14.9119 0.953151
14.9142 1.00251
14.9166 0.989539
14.9189 0.965753
14.9212 0.959837
14.9236 0.946686
14.9259 0.971063
14.9283 0.966499
14.9306 0.975897
14.933 0.952401
14.9353 0.940589
14.9377 0.970975
14.94 0.96633
14.9424 0.959092
14.9447 0.971362
14.947 0.988364
14.9494 0.95106
14.9517 0.907971
14.9541 0.918923
14.9564 0.946678
14.9588 0.959239
14.9611 0.945308
14.9635 0.971896
14.9658 0.939687
14.9682 0.931549
14.9705 0.940052
14.9728 0.94617
14.9752 0.968574
14.9775 1.00544
14.9799 0.99561
14.9822 0.983852
14.9846 1.00468
14.9869 1.00473
14.9893 1.00733
14.9916 1.00206
14.994 0.991147
14.9963 1.03656
14.9986 1.01205
