[DEFAULT]

version = diffpy.pdfgetx-2.2.1

# input and output specifications
dataformat = QA
inputfile = bf10_acc_r01.xyd
backgroundfiles = emptycap.xyd
outputtype = sq

# PDF calculation setup
mode = xray
composition = AlOOH
bgscales = 0.5
rpoly = 1.13
qmaxinst = 20.396
qmin = 0.406
qmax = 15
rmin = 0
rmax = 300
rstep = 0.01

# End of config --------------------------------------------------------------

#### start data
#S 1
#L Q(Ã…$^{-1}$)  S(a.u.)
0.408095 1.4364
0.41044 1.43244
0.412785 1.42636
0.415131 1.41802
0.417476 1.40893
0.419821 1.40602
0.422167 1.39984
0.424512 1.39382
0.426857 1.38921
0.429203 1.38378
0.431548 1.37757
0.433894 1.37159
0.436239 1.36565
0.438584 1.35991
0.44093 1.35537
0.443275 1.35125
0.44562 1.34788
0.447966 1.34443
0.450311 1.34048
0.452657 1.33649
0.455002 1.32936
0.457347 1.32489
0.459693 1.32077
0.462038 1.31485
0.464383 1.30671
0.466729 1.30702
0.469074 1.30383
0.47142 1.29839
0.473765 1.29255
0.47611 1.28573
0.478456 1.28784
0.480801 1.28628
0.483146 1.28013
0.485492 1.27176
0.487837 1.2692
0.490182 1.26913
0.492528 1.26935
0.494873 1.26696
0.497219 1.26118
0.499564 1.26013
0.501909 1.25841
0.504255 1.25632
0.5066 1.25306
0.508945 1.24818
0.511291 1.24359
0.513636 1.24271
0.515982 1.24256
0.518327 1.24082
0.520672 1.23618
0.523018 1.2323
0.525363 1.22789
0.527708 1.22279
0.530054 1.21894
0.532399 1.21826
0.534745 1.21829
0.53709 1.21357
0.539435 1.20845
0.541781 1.20526
0.544126 1.20532
0.546471 1.20664
0.548817 1.20405
0.551162 1.20141
0.553507 1.19943
0.555853 1.19759
0.558198 1.19552
0.560544 1.1939
0.562889 1.19124
0.565234 1.18826
0.56758 1.18685
0.569925 1.18966
0.57227 1.18732
0.574616 1.18476
0.576961 1.18376
0.579307 1.18437
0.581652 1.18485
0.583997 1.18066
0.586343 1.17808
0.588688 1.17738
0.591033 1.17505
0.593379 1.17256
0.595724 1.17092
0.59807 1.1711
0.600415 1.17314
0.60276 1.17621
0.605106 1.16771
0.607451 1.16524
0.609796 1.16527
0.612142 1.16533
0.614487 1.16372
0.616832 1.16317
0.619178 1.15964
0.621523 1.15991
0.623869 1.16381
0.626214 1.16362
0.628559 1.16103
0.630905 1.15884
0.63325 1.15738
0.635595 1.15594
0.637941 1.15249
0.640286 1.14969
0.642632 1.15319
0.644977 1.15627
0.647322 1.15578
0.649668 1.15406
0.652013 1.15549
0.654358 1.15376
0.656704 1.15437
0.659049 1.15664
0.661395 1.14799
0.66374 1.14894
0.666085 1.15077
0.668431 1.14995
0.670776 1.14678
0.673121 1.14871
0.675467 1.14972
0.677812 1.15153
0.680158 1.15338
0.682503 1.15397
0.684848 1.15091
0.687194 1.1527
0.689539 1.15295
0.691884 1.15355
0.69423 1.15562
0.696575 1.15594
0.69892 1.15411
0.701266 1.15067
0.703611 1.14995
0.705957 1.15342
0.708302 1.15201
0.710647 1.15367
0.712993 1.15415
0.715338 1.15645
0.717683 1.16216
0.720029 1.16334
0.722374 1.16104
0.72472 1.15987
0.727065 1.16145
0.72941 1.16518
0.731756 1.16294
0.734101 1.16263
0.736446 1.16469
0.738792 1.1675
0.741137 1.16909
0.743483 1.16817
0.745828 1.17048
0.748173 1.17548
0.750519 1.18013
0.752864 1.18147
0.755209 1.18156
0.757555 1.18544
0.7599 1.18887
0.762245 1.18931
0.764591 1.18607
0.766936 1.18875
0.769282 1.18614
0.771627 1.18875
0.773972 1.19412
0.776318 1.19618
0.778663 1.19997
0.781008 1.20322
0.783354 1.2033
0.785699 1.20397
0.788045 1.2107
0.79039 1.21609
0.792735 1.21514
0.795081 1.21695
0.797426 1.22023
0.799771 1.21936
0.802117 1.21952
0.804462 1.22565
0.806808 1.23206
0.809153 1.23558
0.811498 1.23479
0.813844 1.23823
0.816189 1.24086
0.818534 1.24455
0.82088 1.24957
0.823225 1.25514
0.82557 1.26055
0.827916 1.2607
0.830261 1.26179
0.832607 1.26577
0.834952 1.27148
0.837297 1.27479
0.839643 1.27498
0.841988 1.27757
0.844333 1.28408
0.846679 1.29254
0.849024 1.29645
0.85137 1.29864
0.853715 1.30157
0.85606 1.30668
0.858406 1.31456
0.860751 1.32348
0.863096 1.32595
0.865442 1.32605
0.867787 1.3267
0.870133 1.3296
0.872478 1.33612
0.874823 1.3433
0.877169 1.34817
0.879514 1.35095
0.881859 1.35596
0.884205 1.36154
0.88655 1.36631
0.888896 1.37092
0.891241 1.37719
0.893586 1.38887
0.895932 1.39044
0.898277 1.39088
0.900622 1.39445
0.902968 1.40042
0.905313 1.39974
0.907658 1.40306
0.910004 1.41011
0.912349 1.41857
0.914695 1.42509
0.91704 1.42413
0.919385 1.42741
0.921731 1.42924
0.924076 1.43034
0.926421 1.43025
0.928767 1.42462
0.931112 1.43034
0.933458 1.44132
0.935803 1.44929
0.938148 1.45008
0.940494 1.44972
0.942839 1.45158
0.945184 1.45145
0.94753 1.44754
0.949875 1.44163
0.952221 1.44495
0.954566 1.45051
0.956911 1.44621
0.959257 1.44024
0.961602 1.44038
0.963947 1.44461
0.966293 1.44082
0.968638 1.44112
0.970983 1.44388
0.973329 1.44507
0.975674 1.43944
0.97802 1.43293
0.980365 1.42833
0.98271 1.42321
0.985056 1.41653
0.987401 1.41734
0.989746 1.4076
0.992092 1.40303
0.994437 1.39772
0.996783 1.38566
0.999128 1.38218
1.00147 1.3747
1.00382 1.36555
1.00616 1.35723
1.00851 1.35096
1.01085 1.33993
1.0132 1.33074
1.01555 1.32459
1.01789 1.31841
1.02024 1.30937
1.02258 1.3042
1.02493 1.29347
1.02727 1.28519
1.02962 1.27709
1.03196 1.26455
1.03431 1.24891
1.03665 1.24106
1.039 1.23183
1.04134 1.22038
1.04369 1.20947
1.04604 1.20856
1.04838 1.19336
1.05073 1.18152
1.05307 1.17427
1.05542 1.16677
1.05776 1.1577
1.06011 1.14576
1.06245 1.13818
1.0648 1.13342
1.06714 1.12631
1.06949 1.11667
1.07183 1.11015
1.07418 1.10473
1.07653 1.09827
1.07887 1.08882
1.08122 1.08112
1.08356 1.08113
1.08591 1.07683
1.08825 1.0679
1.0906 1.06019
1.09294 1.05325
1.09529 1.04887
1.09763 1.04669
1.09998 1.04312
1.10232 1.0331
1.10467 1.02934
1.10701 1.02379
1.10936 1.01809
1.11171 1.01436
1.11405 1.01476
1.1164 1.00769
1.11874 1.00137
1.12109 0.995237
1.12343 0.988825
1.12578 0.981939
1.12812 0.983571
1.13047 0.980747
1.13281 0.9777
1.13516 0.975387
1.1375 0.972095
1.13985 0.97275
1.1422 0.967592
1.14454 0.962182
1.14689 0.958949
1.14923 0.957448
1.15158 0.953982
1.15392 0.95073
1.15627 0.950784
1.15861 0.952713
1.16096 0.950248
1.1633 0.942662
1.16565 0.934851
1.16799 0.92966
1.17034 0.927324
1.17269 0.925104
1.17503 0.924668
1.17738 0.923704
1.17972 0.921565
1.18207 0.918335
1.18441 0.914985
1.18676 0.909813
1.1891 0.907127
1.19145 0.905029
1.19379 0.903004
1.19614 0.902764
1.19848 0.902187
1.20083 0.90247
1.20318 0.900553
1.20552 0.896448
1.20787 0.895175
1.21021 0.895275
1.21256 0.89453
1.2149 0.889854
1.21725 0.882973
1.21959 0.88407
1.22194 0.885346
1.22428 0.882443
1.22663 0.880822
1.22897 0.882258
1.23132 0.880716
1.23366 0.879948
1.23601 0.877991
1.23836 0.87666
1.2407 0.876116
1.24305 0.872576
1.24539 0.867915
1.24774 0.866142
1.25008 0.865095
1.25243 0.863698
1.25477 0.864454
1.25712 0.863412
1.25946 0.862669
1.26181 0.86225
1.26415 0.861962
1.2665 0.861558
1.26885 0.85973
1.27119 0.857274
1.27354 0.855383
1.27588 0.854419
1.27823 0.852454
1.28057 0.852631
1.28292 0.850716
1.28526 0.850039
1.28761 0.852225
1.28995 0.851541
1.2923 0.849678
1.29464 0.848058
1.29699 0.845135
1.29934 0.8411
1.30168 0.842915
1.30403 0.841782
1.30637 0.841199
1.30872 0.84059
1.31106 0.839581
1.31341 0.840526
1.31575 0.837776
1.3181 0.837418
1.32044 0.838216
1.32279 0.838248
1.32513 0.837368
1.32748 0.83166
1.32983 0.830138
1.33217 0.831256
1.33452 0.832489
1.33686 0.835182
1.33921 0.832637
1.34155 0.829661
1.3439 0.828441
1.34624 0.829306
1.34859 0.826579
1.35093 0.824804
1.35328 0.826425
1.35562 0.82848
1.35797 0.828076
1.36032 0.828163
1.36266 0.82882
1.36501 0.825802
1.36735 0.822265
1.3697 0.822038
1.37204 0.82376
1.37439 0.824124
1.37673 0.821516
1.37908 0.816216
1.38142 0.810434
1.38377 0.814141
1.38611 0.817933
1.38846 0.819983
1.3908 0.820177
1.39315 0.81876
1.3955 0.814834
1.39784 0.8135
1.40019 0.812441
1.40253 0.81256
1.40488 0.814784
1.40722 0.814763
1.40957 0.814526
1.41191 0.811417
1.41426 0.808867
1.4166 0.810866
1.41895 0.812175
1.42129 0.811182
1.42364 0.810124
1.42599 0.809306
1.42833 0.808525
1.43068 0.808197
1.43302 0.8074
1.43537 0.805692
1.43771 0.804742
1.44006 0.806275
1.4424 0.806439
1.44475 0.805995
1.44709 0.805653
1.44944 0.805548
1.45178 0.805779
1.45413 0.808057
1.45648 0.808233
1.45882 0.809614
1.46117 0.808509
1.46351 0.80045
1.46586 0.79888
1.4682 0.798932
1.47055 0.800059
1.47289 0.803221
1.47524 0.808646
1.47758 0.803376
1.47993 0.798377
1.48227 0.798699
1.48462 0.801004
1.48697 0.799331
1.48931 0.800374
1.49166 0.79918
1.494 0.79798
1.49635 0.797067
1.49869 0.796179
1.50104 0.798381
1.50338 0.796032
1.50573 0.796964
1.50807 0.801694
1.51042 0.806563
1.51276 0.798455
1.51511 0.793778
1.51745 0.791103
1.5198 0.790428
1.52215 0.792088
1.52449 0.793429
1.52684 0.791572
1.52918 0.790565
1.53153 0.791473
1.53387 0.793696
1.53622 0.793904
1.53856 0.7941
1.54091 0.792858
1.54325 0.789246
1.5456 0.783318
1.54794 0.78602
1.55029 0.790652
1.55264 0.788913
1.55498 0.784944
1.55733 0.788675
1.55967 0.788356
1.56202 0.787949
1.56436 0.785425
1.56671 0.783724
1.56905 0.78792
1.5714 0.788371
1.57374 0.785933
1.57609 0.788762
1.57843 0.79393
1.58078 0.792481
1.58313 0.787969
1.58547 0.788745
1.58782 0.78864
1.59016 0.786302
1.59251 0.783631
1.59485 0.791344
1.5972 0.792907
1.59954 0.79057
1.60189 0.786807
1.60423 0.784405
1.60658 0.784622
1.60892 0.788444
1.61127 0.790219
1.61362 0.790231
1.61596 0.792117
1.61831 0.788571
1.62065 0.787713
1.623 0.789162
1.62534 0.791605
1.62769 0.792923
1.63003 0.788996
1.63238 0.78606
1.63472 0.787366
1.63707 0.789716
1.63941 0.786014
1.64176 0.784915
1.6441 0.790644
1.64645 0.793287
1.6488 0.790367
1.65114 0.784653
1.65349 0.785232
1.65583 0.785709
1.65818 0.786283
1.66052 0.78456
1.66287 0.777054
1.66521 0.782371
1.66756 0.785779
1.6699 0.785265
1.67225 0.783203
1.67459 0.785009
1.67694 0.7897
1.67929 0.790305
1.68163 0.790082
1.68398 0.789913
1.68632 0.789221
1.68867 0.792462
1.69101 0.795541
1.69336 0.793676
1.6957 0.789782
1.69805 0.792157
1.70039 0.798799
1.70274 0.797909
1.70508 0.793724
1.70743 0.791044
1.70978 0.794872
1.71212 0.795456
1.71447 0.794644
1.71681 0.795388
1.71916 0.797078
1.7215 0.796594
1.72385 0.79496
1.72619 0.796905
1.72854 0.797359
1.73088 0.796166
1.73323 0.796659
1.73557 0.798821
1.73792 0.798697
1.74027 0.799253
1.74261 0.798807
1.74496 0.792715
1.7473 0.792182
1.74965 0.796295
1.75199 0.799705
1.75434 0.803052
1.75668 0.8108
1.75903 0.809809
1.76137 0.80762
1.76372 0.804389
1.76606 0.802943
1.76841 0.807737
1.77075 0.810334
1.7731 0.809904
1.77545 0.810974
1.77779 0.813094
1.78014 0.812603
1.78248 0.818571
1.78483 0.82127
1.78717 0.821515
1.78952 0.820789
1.79186 0.821091
1.79421 0.821933
1.79655 0.828685
1.7989 0.833037
1.80124 0.834364
1.80359 0.83732
1.80594 0.84221
1.80828 0.845694
1.81063 0.845964
1.81297 0.843927
1.81532 0.842653
1.81766 0.849901
1.82001 0.859722
1.82235 0.866018
1.8247 0.869149
1.82704 0.87331
1.82939 0.864527
1.83173 0.874121
1.83408 0.883201
1.83643 0.886975
1.83877 0.889952
1.84112 0.898643
1.84346 0.907255
1.84581 0.91152
1.84815 0.912498
1.8505 0.914748
1.85284 0.919446
1.85519 0.92639
1.85753 0.935633
1.85988 0.945014
1.86222 0.95094
1.86457 0.952099
1.86692 0.957399
1.86926 0.967544
1.87161 0.982161
1.87395 0.999207
1.8763 0.999776
1.87864 1.00931
1.88099 1.01998
1.88333 1.03056
1.88568 1.04316
1.88802 1.04992
1.89037 1.05899
1.89271 1.07211
1.89506 1.08819
1.8974 1.10405
1.89975 1.11189
1.9021 1.12677
1.90444 1.13855
1.90679 1.15007
1.90913 1.16937
1.91148 1.16833
1.91382 1.17354
1.91617 1.18754
1.91851 1.20658
1.92086 1.22339
1.9232 1.23593
1.92555 1.25232
1.92789 1.2642
1.93024 1.27366
1.93259 1.28739
1.93493 1.29769
1.93728 1.30327
1.93962 1.3181
1.94197 1.3359
1.94431 1.34227
1.94666 1.3534
1.949 1.36518
1.95135 1.37174
1.95369 1.37553
1.95604 1.38277
1.95838 1.39429
1.96073 1.40093
1.96308 1.40532
1.96542 1.40407
1.96777 1.39416
1.97011 1.40637
1.97246 1.4122
1.9748 1.41108
1.97715 1.40236
1.97949 1.38717
1.98184 1.38118
1.98418 1.38466
1.98653 1.38624
1.98887 1.37319
1.99122 1.33855
1.99357 1.33638
1.99591 1.33548
1.99826 1.31868
2.0006 1.29896
2.00295 1.29523
2.00529 1.27088
2.00764 1.2548
2.00998 1.23865
2.01233 1.22295
2.01467 1.21089
2.01702 1.20225
2.01936 1.18012
2.02171 1.15988
2.02405 1.14049
2.0264 1.11686
2.02875 1.09468
2.03109 1.08701
2.03344 1.07393
2.03578 1.05934
2.03813 1.05248
2.04047 1.04749
2.04282 1.02703
2.04516 1.0131
2.04751 1.00216
2.04985 0.985725
2.0522 0.972252
2.05454 0.957441
2.05689 0.950405
2.05924 0.94615
2.06158 0.937082
2.06393 0.923987
2.06627 0.913975
2.06862 0.910187
2.07096 0.905646
2.07331 0.894338
2.07565 0.889528
2.078 0.883767
2.08034 0.87152
2.08269 0.86269
2.08503 0.864457
2.08738 0.853299
2.08973 0.850413
2.09207 0.848236
2.09442 0.843168
2.09676 0.835463
2.09911 0.838865
2.10145 0.829912
2.1038 0.822827
2.10614 0.816939
2.10849 0.810779
2.11083 0.811488
2.11318 0.81316
2.11552 0.812412
2.11787 0.807809
2.12022 0.80061
2.12256 0.80037
2.12491 0.791854
2.12725 0.785598
2.1296 0.782778
2.13194 0.783796
2.13429 0.792164
2.13663 0.789884
2.13898 0.78563
2.14132 0.781359
2.14367 0.777835
2.14601 0.774992
2.14836 0.768839
2.1507 0.768956
2.15305 0.773373
2.1554 0.777759
2.15774 0.775326
2.16009 0.768858
2.16243 0.763654
2.16478 0.761991
2.16712 0.764135
2.16947 0.766565
2.17181 0.766985
2.17416 0.768262
2.1765 0.768488
2.17885 0.766869
2.18119 0.766006
2.18354 0.765425
2.18589 0.765198
2.18823 0.764596
2.19058 0.763189
2.19292 0.761206
2.19527 0.760544
2.19761 0.76132
2.19996 0.760035
2.2023 0.756994
2.20465 0.75985
2.20699 0.759656
2.20934 0.760153
2.21168 0.762828
2.21403 0.764515
2.21638 0.754435
2.21872 0.751446
2.22107 0.751189
2.22341 0.749996
2.22576 0.749158
2.2281 0.757246
2.23045 0.758555
2.23279 0.753159
2.23514 0.747241
2.23748 0.743955
2.23983 0.742365
2.24217 0.744577
2.24452 0.744086
2.24687 0.745189
2.24921 0.748877
2.25156 0.752147
2.2539 0.749766
2.25625 0.748043
2.25859 0.746897
2.26094 0.745173
2.26328 0.740735
2.26563 0.74615
2.26797 0.747307
2.27032 0.745887
2.27266 0.744175
2.27501 0.74487
2.27735 0.742072
2.2797 0.74196
2.28205 0.744219
2.28439 0.745483
2.28674 0.740294
2.28908 0.736533
2.29143 0.739202
2.29377 0.737681
2.29612 0.733978
2.29846 0.738099
2.30081 0.738473
2.30315 0.738614
2.3055 0.736829
2.30784 0.734501
2.31019 0.734787
2.31254 0.73793
2.31488 0.738844
2.31723 0.737172
2.31957 0.736194
2.32192 0.740051
2.32426 0.737101
2.32661 0.732268
2.32895 0.735272
2.3313 0.740915
2.33364 0.738385
2.33599 0.73306
2.33833 0.736631
2.34068 0.735954
2.34303 0.733739
2.34537 0.737391
2.34772 0.739943
2.35006 0.739931
2.35241 0.741145
2.35475 0.742568
2.3571 0.741852
2.35944 0.738785
2.36179 0.736377
2.36413 0.736558
2.36648 0.735644
2.36882 0.730749
2.37117 0.733586
2.37352 0.733061
2.37586 0.73274
2.37821 0.734582
2.38055 0.738905
2.3829 0.740124
2.38524 0.736989
2.38759 0.733438
2.38993 0.732012
2.39228 0.734094
2.39462 0.737891
2.39697 0.733393
2.39931 0.732784
2.40166 0.738221
2.404 0.746663
2.40635 0.743509
2.4087 0.74051
2.41104 0.738017
2.41339 0.735596
2.41573 0.73348
2.41808 0.734277
2.42042 0.738643
2.42277 0.742878
2.42511 0.741705
2.42746 0.735954
2.4298 0.741601
2.43215 0.743493
2.43449 0.748177
2.43684 0.747777
2.43919 0.739597
2.44153 0.733664
2.44388 0.738145
2.44622 0.742019
2.44857 0.744952
2.45091 0.747697
2.45326 0.75168
2.4556 0.753612
2.45795 0.75682
2.46029 0.758204
2.46264 0.757911
2.46498 0.761156
2.46733 0.762858
2.46968 0.758634
2.47202 0.758679
2.47437 0.765262
2.47671 0.770714
2.47906 0.763672
2.4814 0.764411
2.48375 0.763009
2.48609 0.7597
2.48844 0.765039
2.49078 0.76451
2.49313 0.772364
2.49547 0.776131
2.49782 0.775444
2.50017 0.779884
2.50251 0.786285
2.50486 0.782363
2.5072 0.785789
2.50955 0.795123
2.51189 0.796645
2.51424 0.802495
2.51658 0.814153
2.51893 0.81934
2.52127 0.817439
2.52362 0.814687
2.52596 0.816964
2.52831 0.825025
2.53066 0.8339
2.533 0.843465
2.53535 0.85417
2.53769 0.849389
2.54004 0.855179
2.54238 0.865251
2.54473 0.873804
2.54707 0.877143
2.54942 0.888028
2.55176 0.894914
2.55411 0.904886
2.55645 0.915698
2.5588 0.923033
2.56114 0.927592
2.56349 0.939228
2.56584 0.956317
2.56818 0.967748
2.57053 0.9668
2.57287 0.978206
2.57522 0.992843
2.57756 1.00236
2.57991 1.01072
2.58225 1.02157
2.5846 1.02833
2.58694 1.04551
2.58929 1.06205
2.59163 1.07884
2.59398 1.09773
2.59633 1.11832
2.59867 1.12776
2.60102 1.14696
2.60336 1.16468
2.60571 1.17448
2.60805 1.18953
2.6104 1.20059
2.61274 1.21465
2.61509 1.23204
2.61743 1.25082
2.61978 1.26578
2.62212 1.28281
2.62447 1.29841
2.62682 1.31422
2.62916 1.3326
2.63151 1.35681
2.63385 1.36907
2.6362 1.37737
2.63854 1.38837
2.64089 1.40318
2.64323 1.41633
2.64558 1.42676
2.64792 1.43903
2.65027 1.45065
2.65261 1.46148
2.65496 1.47358
2.65731 1.4867
2.65965 1.49174
2.662 1.48537
2.66434 1.47872
2.66669 1.49209
2.66903 1.4945
2.67138 1.48489
2.67372 1.47449
2.67607 1.47181
2.67841 1.48143
2.68076 1.47356
2.6831 1.46045
2.68545 1.4452
2.68779 1.43386
2.69014 1.43145
2.69249 1.41819
2.69483 1.39794
2.69718 1.38198
2.69952 1.36892
2.70187 1.35281
2.70421 1.32812
2.70656 1.31172
2.7089 1.29778
2.71125 1.2815
2.71359 1.26178
2.71594 1.25564
2.71828 1.23858
2.72063 1.2164
2.72298 1.19782
2.72532 1.18841
2.72767 1.17964
2.73001 1.15793
2.73236 1.14024
2.7347 1.12481
2.73705 1.10904
2.73939 1.09676
2.74174 1.08032
2.74408 1.06889
2.74643 1.06188
2.74877 1.05482
2.75112 1.03697
2.75347 1.0214
2.75581 1.015
2.75816 1.00979
2.7605 0.999605
2.76285 0.983096
2.76519 0.971187
2.76754 0.964878
2.76988 0.959451
2.77223 0.952976
2.77457 0.947554
2.77692 0.936417
2.77926 0.920622
2.78161 0.912194
2.78396 0.910334
2.7863 0.901433
2.78865 0.898486
2.79099 0.899177
2.79334 0.891533
2.79568 0.87891
2.79803 0.875415
2.80037 0.862634
2.80272 0.858486
2.80506 0.851822
2.80741 0.844568
2.80975 0.845127
2.8121 0.845591
2.81444 0.842485
2.81679 0.835343
2.81914 0.826575
2.82148 0.820227
2.82383 0.822476
2.82617 0.818614
2.82852 0.81439
2.83086 0.811181
2.83321 0.808897
2.83555 0.807124
2.8379 0.799635
2.84024 0.798111
2.84259 0.797176
2.84493 0.791272
2.84728 0.791694
2.84963 0.792329
2.85197 0.789227
2.85432 0.785458
2.85666 0.782974
2.85901 0.776358
2.86135 0.776737
2.8637 0.77853
2.86604 0.776091
2.86839 0.76821
2.87073 0.763444
2.87308 0.76528
2.87542 0.772641
2.87777 0.772955
2.88012 0.764356
2.88246 0.763958
2.88481 0.760834
2.88715 0.758237
2.8895 0.7597
2.89184 0.764649
2.89419 0.767535
2.89653 0.758819
2.89888 0.74721
2.90122 0.746995
2.90357 0.754472
2.90591 0.750353
2.90826 0.75698
2.91061 0.755686
2.91295 0.754455
2.9153 0.75313
2.91764 0.747054
2.91999 0.748107
2.92233 0.75072
2.92468 0.748742
2.92702 0.742976
2.92937 0.738585
2.93171 0.748846
2.93406 0.749776
2.9364 0.749569
2.93875 0.750514
2.94109 0.75164
2.94344 0.743893
2.94579 0.7485
2.94813 0.750483
2.95048 0.747918
2.95282 0.742789
2.95517 0.739469
2.95751 0.73838
2.95986 0.739498
2.9622 0.74437
2.96455 0.751909
2.96689 0.752629
2.96924 0.749705
2.97158 0.748445
2.97393 0.746388
2.97628 0.741936
2.97862 0.737026
2.98097 0.74469
2.98331 0.743567
2.98566 0.744024
2.988 0.748596
2.99035 0.744929
2.99269 0.742432
2.99504 0.743998
2.99738 0.749223
2.99973 0.75404
3.00207 0.750852
3.00442 0.752993
3.00677 0.754794
3.00911 0.757007
3.01146 0.758748
3.0138 0.757846
3.01615 0.751662
3.01849 0.751162
3.02084 0.755874
3.02318 0.761334
3.02553 0.76151
3.02787 0.758882
3.03022 0.756295
3.03256 0.761673
3.03491 0.769173
3.03726 0.769423
3.0396 0.766304
3.04195 0.775521
3.04429 0.780331
3.04664 0.779639
3.04898 0.777498
3.05133 0.781888
3.05367 0.785904
3.05602 0.789452
3.05836 0.78946
3.06071 0.786114
3.06305 0.790706
3.0654 0.798386
3.06774 0.8021
3.07009 0.803877
3.07244 0.806003
3.07478 0.80916
3.07713 0.815882
3.07947 0.81812
3.08182 0.821048
3.08416 0.825039
3.08651 0.822556
3.08885 0.826862
3.0912 0.828513
3.09354 0.830024
3.09589 0.833323
3.09823 0.83931
3.10058 0.840191
3.10293 0.84171
3.10527 0.846279
3.10762 0.852802
3.10996 0.858132
3.11231 0.866238
3.11465 0.877427
3.117 0.880396
3.11934 0.878637
3.12169 0.881573
3.12403 0.887788
3.12638 0.893693
3.12872 0.895031
3.13107 0.893412
3.13342 0.892671
3.13576 0.897977
3.13811 0.905478
3.14045 0.913208
3.1428 0.915223
3.14514 0.910309
3.14749 0.915627
3.14983 0.921714
3.15218 0.923211
3.15452 0.924276
3.15687 0.927554
3.15921 0.929497
3.16156 0.934108
3.16391 0.929374
3.16625 0.923619
3.1686 0.924608
3.17094 0.937153
3.17329 0.94281
3.17563 0.940048
3.17798 0.939085
3.18032 0.943379
3.18267 0.948827
3.18501 0.938824
3.18736 0.937462
3.1897 0.940884
3.19205 0.945611
3.19439 0.948312
3.19674 0.944008
3.19909 0.939325
3.20143 0.937828
3.20378 0.939209
3.20612 0.941351
3.20847 0.942855
3.21081 0.948195
3.21316 0.954499
3.2155 0.962148
3.21785 0.970726
3.22019 0.971497
3.22254 0.979788
3.22488 0.986637
3.22723 0.992952
3.22958 0.999153
3.23192 0.998381
3.23427 1.00366
3.23661 1.00659
3.23896 1.01492
3.2413 1.03191
3.24365 1.04895
3.24599 1.05066
3.24834 1.04981
3.25068 1.05891
3.25303 1.07673
3.25537 1.08461
3.25772 1.08345
3.26007 1.0891
3.26241 1.09848
3.26476 1.11132
3.2671 1.12968
3.26945 1.15143
3.27179 1.16062
3.27414 1.16964
3.27648 1.18672
3.27883 1.21459
3.28117 1.224
3.28352 1.23219
3.28586 1.24053
3.28821 1.25254
3.29056 1.26906
3.2929 1.2712
3.29525 1.28197
3.29759 1.30712
3.29994 1.33888
3.30228 1.36712
3.30463 1.38491
3.30697 1.40135
3.30932 1.40476
3.31166 1.42166
3.31401 1.46074
3.31635 1.48224
3.3187 1.50097
3.32104 1.52353
3.32339 1.55759
3.32574 1.59436
3.32808 1.60285
3.33043 1.62944
3.33277 1.65841
3.33512 1.68393
3.33746 1.70646
3.33981 1.73214
3.34215 1.76842
3.3445 1.80697
3.34684 1.83796
3.34919 1.86952
3.35153 1.91693
3.35388 1.9621
3.35623 2.00052
3.35857 2.03693
3.36092 2.06903
3.36326 2.097
3.36561 2.14811
3.36795 2.19835
3.3703 2.23627
3.37264 2.26277
3.37499 2.2866
3.37733 2.33262
3.37968 2.3588
3.38202 2.36976
3.38437 2.38515
3.38672 2.40454
3.38906 2.38296
3.39141 2.37324
3.39375 2.38121
3.3961 2.36561
3.39844 2.31573
3.40079 2.2618
3.40313 2.24096
3.40548 2.19596
3.40782 2.13525
3.41017 2.06912
3.41251 2.0084
3.41486 1.95204
3.41721 1.89213
3.41955 1.83208
3.4219 1.77559
3.42424 1.72502
3.42659 1.67105
3.42893 1.61318
3.43128 1.56691
3.43362 1.52854
3.43597 1.49023
3.43831 1.45282
3.44066 1.40951
3.443 1.3711
3.44535 1.33953
3.44769 1.31448
3.45004 1.2945
3.45239 1.27649
3.45473 1.24408
3.45708 1.21708
3.45942 1.20245
3.46177 1.18243
3.46411 1.16809
3.46646 1.15217
3.4688 1.13732
3.47115 1.1245
3.47349 1.1128
3.47584 1.10068
3.47818 1.09212
3.48053 1.08807
3.48288 1.0828
3.48522 1.06968
3.48757 1.07412
3.48991 1.06953
3.49226 1.06349
3.4946 1.05574
3.49695 1.04554
3.49929 1.04378
3.50164 1.04309
3.50398 1.03998
3.50633 1.04055
3.50867 1.04743
3.51102 1.04748
3.51337 1.03812
3.51571 1.03512
3.51806 1.03802
3.5204 1.04064
3.52275 1.02995
3.52509 1.03003
3.52744 1.03237
3.52978 1.02927
3.53213 1.02357
3.53447 1.02846
3.53682 1.03111
3.53916 1.02308
3.54151 1.0166
3.54386 1.0146
3.5462 1.0128
3.54855 0.992381
3.55089 0.974887
3.55324 0.969125
3.55558 0.967834
3.55793 0.960061
3.56027 0.948041
3.56262 0.943966
3.56496 0.94298
3.56731 0.935691
3.56965 0.918335
3.572 0.906115
3.57434 0.889585
3.57669 0.875482
3.57904 0.868957
3.58138 0.870222
3.58373 0.871739
3.58607 0.861624
3.58842 0.856566
3.59076 0.850301
3.59311 0.844475
3.59545 0.848389
3.5978 0.840474
3.60014 0.835693
3.60249 0.827945
3.60483 0.822135
3.60718 0.826918
3.60953 0.824145
3.61187 0.819715
3.61422 0.81713
3.61656 0.816111
3.61891 0.814609
3.62125 0.808283
3.6236 0.809333
3.62594 0.804757
3.62829 0.798005
3.63063 0.794881
3.63298 0.799687
3.63532 0.80457
3.63767 0.80977
3.64002 0.809205
3.64236 0.801819
3.64471 0.794474
3.64705 0.802058
3.6494 0.818035
3.65174 0.820763
3.65409 0.812164
3.65643 0.813193
3.65878 0.81419
3.66112 0.810039
3.66347 0.815074
3.66581 0.824683
3.66816 0.827675
3.67051 0.833536
3.67285 0.830185
3.6752 0.829337
3.67754 0.832925
3.67989 0.839542
3.68223 0.845478
3.68458 0.851155
3.68692 0.855723
3.68927 0.862973
3.69161 0.872862
3.69396 0.876594
3.6963 0.879762
3.69865 0.878549
3.70099 0.884019
3.70334 0.895994
3.70569 0.901388
3.70803 0.908221
3.71038 0.917886
3.71272 0.924196
3.71507 0.929306
3.71741 0.93889
3.71976 0.938076
3.7221 0.941413
3.72445 0.950556
3.72679 0.95948
3.72914 0.962342
3.73148 0.96745
3.73383 0.961873
3.73618 0.970859
3.73852 0.981071
3.74087 0.981728
3.74321 0.985894
3.74556 0.991529
3.7479 0.993571
3.75025 0.997912
3.75259 1.00331
3.75494 0.997981
3.75728 0.996931
3.75963 1.00577
3.76197 1.01839
3.76432 1.02692
3.76667 1.02462
3.76901 1.03611
3.77136 1.03723
3.7737 1.04038
3.77605 1.03456
3.77839 1.01059
3.78074 1.02573
3.78308 1.0266
3.78543 1.0241
3.78777 1.02753
3.79012 1.0354
3.79246 1.01561
3.79481 1.0108
3.79716 1.01422
3.7995 1.0097
3.80185 0.994282
3.80419 0.986286
3.80654 0.988608
3.80888 0.983385
3.81123 0.974383
3.81357 0.968791
3.81592 0.974437
3.81826 0.969956
3.82061 0.953631
3.82295 0.941202
3.8253 0.937593
3.82765 0.939937
3.82999 0.928484
3.83234 0.923467
3.83468 0.920435
3.83703 0.917894
3.83937 0.915717
3.84172 0.916167
3.84406 0.897369
3.84641 0.892412
3.84875 0.897338
3.8511 0.897441
3.85344 0.867808
3.85579 0.867806
3.85813 0.873619
3.86048 0.870187
3.86283 0.860543
3.86517 0.861359
3.86752 0.85843
3.86986 0.850375
3.87221 0.847772
3.87455 0.849233
3.8769 0.848715
3.87924 0.845202
3.88159 0.844636
3.88393 0.84433
3.88628 0.840793
3.88862 0.832632
3.89097 0.824723
3.89332 0.818108
3.89566 0.814204
3.89801 0.811046
3.90035 0.806689
3.9027 0.799809
3.90504 0.792793
3.90739 0.790102
3.90973 0.79557
3.91208 0.805625
3.91442 0.810789
3.91677 0.798977
3.91911 0.796005
3.92146 0.791895
3.92381 0.78818
3.92615 0.788673
3.9285 0.784752
3.93084 0.786525
3.93319 0.79186
3.93553 0.795075
3.93788 0.794188
3.94022 0.798294
3.94257 0.795694
3.94491 0.795655
3.94726 0.79558
3.9496 0.793002
3.95195 0.786893
3.9543 0.783216
3.95664 0.784393
3.95899 0.788305
3.96133 0.795365
3.96368 0.805512
3.96602 0.795527
3.96837 0.795089
3.97071 0.795223
3.97306 0.796287
3.9754 0.799851
3.97775 0.799838
3.98009 0.799003
3.98244 0.798879
3.98478 0.802392
3.98713 0.806711
3.98948 0.797174
3.99182 0.798517
3.99417 0.803546
3.99651 0.804166
3.99886 0.801805
4.0012 0.806731
4.00355 0.803836
4.00589 0.81101
4.00824 0.816005
4.01058 0.817098
4.01293 0.817445
4.01527 0.814714
4.01762 0.810092
4.01997 0.811778
4.02231 0.813948
4.02466 0.811992
4.027 0.815872
4.02935 0.817954
4.03169 0.820723
4.03404 0.826203
4.03638 0.833339
4.03873 0.836788
4.04107 0.837204
4.04342 0.834918
4.04576 0.838548
4.04811 0.840921
4.05046 0.826261
4.0528 0.818338
4.05515 0.828788
4.05749 0.83569
4.05984 0.834581
4.06218 0.828319
4.06453 0.823017
4.06687 0.838105
4.06922 0.843951
4.07156 0.847526
4.07391 0.852596
4.07625 0.844062
4.0786 0.838169
4.08095 0.837948
4.08329 0.833646
4.08564 0.826525
4.08798 0.828765
4.09033 0.833187
4.09267 0.829197
4.09502 0.834009
4.09736 0.840564
4.09971 0.834189
4.10205 0.829637
4.1044 0.827195
4.10674 0.83061
4.10909 0.837357
4.11143 0.843111
4.11378 0.842869
4.11613 0.837374
4.11847 0.824887
4.12082 0.815873
4.12316 0.813851
4.12551 0.812098
4.12785 0.826446
4.1302 0.828878
4.13254 0.825551
4.13489 0.820011
4.13723 0.815593
4.13958 0.831021
4.14192 0.818887
4.14427 0.813177
4.14662 0.812091
4.14896 0.808325
4.15131 0.81261
4.15365 0.816046
4.156 0.817585
4.15834 0.818875
4.16069 0.819727
4.16303 0.816564
4.16538 0.820228
4.16772 0.825084
4.17007 0.826176
4.17241 0.825171
4.17476 0.828179
4.17711 0.832745
4.17945 0.832042
4.1818 0.833714
4.18414 0.835594
4.18649 0.834085
4.18883 0.834362
4.19118 0.845078
4.19352 0.84204
4.19587 0.834283
4.19821 0.83108
4.20056 0.832665
4.2029 0.844264
4.20525 0.845591
4.2076 0.839932
4.20994 0.837297
4.21229 0.850557
4.21463 0.863151
4.21698 0.864727
4.21932 0.862863
4.22167 0.864797
4.22401 0.876631
4.22636 0.900751
4.2287 0.905479
4.23105 0.900748
4.23339 0.908181
4.23574 0.930584
4.23808 0.928659
4.24043 0.944471
4.24278 0.963545
4.24512 0.980743
4.24747 0.992111
4.24981 0.995812
4.25216 1.00913
4.2545 1.02483
4.25685 1.03754
4.25919 1.05438
4.26154 1.08126
4.26388 1.09013
4.26623 1.10889
4.26857 1.12874
4.27092 1.15582
4.27327 1.18897
4.27561 1.20648
4.27796 1.22765
4.2803 1.2494
4.28265 1.26989
4.28499 1.2928
4.28734 1.3255
4.28968 1.34597
4.29203 1.36497
4.29437 1.38923
4.29672 1.41471
4.29906 1.43605
4.30141 1.46619
4.30376 1.48738
4.3061 1.50326
4.30845 1.52634
4.31079 1.5558
4.31314 1.55983
4.31548 1.57945
4.31783 1.59757
4.32017 1.60234
4.32252 1.60465
4.32486 1.63316
4.32721 1.66253
4.32955 1.68844
4.3319 1.69825
4.33425 1.70368
4.33659 1.72113
4.33894 1.73924
4.34128 1.76542
4.34363 1.77147
4.34597 1.77559
4.34832 1.79564
4.35066 1.83302
4.35301 1.85633
4.35535 1.87735
4.3577 1.89207
4.36004 1.90077
4.36239 1.90984
4.36473 1.95481
4.36708 1.96764
4.36943 1.96832
4.37177 1.9663
4.37412 1.96604
4.37646 1.96702
4.37881 1.94064
4.38115 1.90639
4.3835 1.86254
4.38584 1.81064
4.38819 1.76216
4.39053 1.70397
4.39288 1.64696
4.39522 1.58489
4.39757 1.52465
4.39992 1.48092
4.40226 1.44392
4.40461 1.39339
4.40695 1.36033
4.4093 1.33048
4.41164 1.28651
4.41399 1.25236
4.41633 1.24665
4.41868 1.23475
4.42102 1.21673
4.42337 1.19799
4.42571 1.18563
4.42806 1.19056
4.43041 1.18717
4.43275 1.17961
4.4351 1.17585
4.43744 1.18293
4.43979 1.18402
4.44213 1.16934
4.44448 1.16049
4.44682 1.16266
4.44917 1.17253
4.45151 1.17575
4.45386 1.17349
4.4562 1.17718
4.45855 1.17716
4.4609 1.17822
4.46324 1.20091
4.46559 1.19847
4.46793 1.21105
4.47028 1.22056
4.47262 1.22243
4.47497 1.22092
4.47731 1.23023
4.47966 1.23663
4.482 1.22442
4.48435 1.21089
4.48669 1.21345
4.48904 1.23625
4.49138 1.22957
4.49373 1.21707
4.49608 1.21293
4.49842 1.21355
4.50077 1.20184
4.50311 1.18618
4.50546 1.18075
4.5078 1.17984
4.51015 1.17538
4.51249 1.16148
4.51484 1.14327
4.51718 1.14472
4.51953 1.13576
4.52187 1.12603
4.52422 1.12275
4.52657 1.12201
4.52891 1.11877
4.53126 1.11532
4.5336 1.10382
4.53595 1.09005
4.53829 1.08477
4.54064 1.07141
4.54298 1.06282
4.54533 1.06649
4.54767 1.06726
4.55002 1.05477
4.55236 1.04488
4.55471 1.04811
4.55706 1.04076
4.5594 1.03805
4.56175 1.04133
4.56409 1.0362
4.56644 1.02857
4.56878 1.02157
4.57113 1.0097
4.57347 1.00451
4.57582 1.0149
4.57816 1.00738
4.58051 0.998904
4.58285 0.985752
4.5852 0.975728
4.58755 0.972261
4.58989 0.96891
4.59224 0.965343
4.59458 0.963097
4.59693 0.958046
4.59927 0.949402
4.60162 0.940724
4.60396 0.951904
4.60631 0.941894
4.60865 0.941251
4.611 0.946706
4.61334 0.949808
4.61569 0.951741
4.61803 0.945583
4.62038 0.946726
4.62273 0.942284
4.62507 0.936911
4.62742 0.952233
4.62976 0.959439
4.63211 0.963013
4.63445 0.960281
4.6368 0.954134
4.63914 0.950894
4.64149 0.961492
4.64383 0.962447
4.64618 0.961374
4.64852 0.959805
4.65087 0.958135
4.65322 0.956113
4.65556 0.946056
4.65791 0.956189
4.66025 0.976261
4.6626 0.991175
4.66494 0.989583
4.66729 1.00128
4.66963 1.00498
4.67198 1.02489
4.67432 1.05005
4.67667 1.06627
4.67901 1.07078
4.68136 1.0753
4.68371 1.07762
4.68605 1.0887
4.6884 1.10086
4.69074 1.09438
4.69309 1.11015
4.69543 1.13076
4.69778 1.15243
4.70012 1.16954
4.70247 1.17888
4.70481 1.1868
4.70716 1.20166
4.7095 1.21083
4.71185 1.21863
4.7142 1.23843
4.71654 1.28856
4.71889 1.29415
4.72123 1.30947
4.72358 1.32792
4.72592 1.34588
4.72827 1.36293
4.73061 1.38654
4.73296 1.41113
4.7353 1.43517
4.73765 1.45364
4.73999 1.46851
4.74234 1.49364
4.74468 1.50257
4.74703 1.53549
4.74938 1.56792
4.75172 1.5909
4.75407 1.60686
4.75641 1.61719
4.75876 1.6287
4.7611 1.66228
4.76345 1.68415
4.76579 1.68475
4.76814 1.73548
4.77048 1.74814
4.77283 1.76658
4.77517 1.77618
4.77752 1.77534
4.77987 1.77607
4.78221 1.79411
4.78456 1.80375
4.7869 1.8041
4.78925 1.80201
4.79159 1.80394
4.79394 1.80756
4.79628 1.79008
4.79863 1.77131
4.80097 1.7651
4.80332 1.76081
4.80566 1.72711
4.80801 1.70847
4.81036 1.69268
4.8127 1.66158
4.81505 1.62923
4.81739 1.60953
4.81974 1.5669
4.82208 1.54061
4.82443 1.51079
4.82677 1.4763
4.82912 1.44008
4.83146 1.40726
4.83381 1.37622
4.83615 1.34939
4.8385 1.31856
4.84085 1.28512
4.84319 1.25717
4.84554 1.25231
4.84788 1.22366
4.85023 1.19694
4.85257 1.17418
4.85492 1.15291
4.85726 1.12944
4.85961 1.10759
4.86195 1.09366
4.8643 1.0748
4.86664 1.05051
4.86899 1.02812
4.87133 1.01632
4.87368 0.994267
4.87603 0.984065
4.87837 0.9815
4.88072 0.976752
4.88306 0.959897
4.88541 0.947526
4.88775 0.932898
4.8901 0.925057
4.89244 0.919069
4.89479 0.903439
4.89713 0.888312
4.89948 0.886767
4.90182 0.87918
4.90417 0.869391
4.90652 0.861869
4.90886 0.851358
4.91121 0.849071
4.91355 0.845245
4.9159 0.837774
4.91824 0.830425
4.92059 0.829026
4.92293 0.821753
4.92528 0.818853
4.92762 0.815494
4.92997 0.811779
4.93231 0.810521
4.93466 0.817848
4.93701 0.824264
4.93935 0.817174
4.9417 0.804178
4.94404 0.793875
4.94639 0.793291
4.94873 0.800461
4.95108 0.789836
4.95342 0.779183
4.95577 0.777839
4.95811 0.785591
4.96046 0.78491
4.9628 0.772098
4.96515 0.764443
4.9675 0.761995
4.96984 0.76675
4.97219 0.780735
4.97453 0.781979
4.97688 0.767303
4.97922 0.749752
4.98157 0.741511
4.98391 0.746783
4.98626 0.750369
4.9886 0.738512
4.99095 0.740251
4.99329 0.747437
4.99564 0.755508
4.99799 0.764102
5.00033 0.758086
5.00268 0.754637
5.00502 0.753786
5.00737 0.75266
5.00971 0.751232
5.01206 0.759266
5.0144 0.756356
5.01675 0.755096
5.01909 0.756975
5.02144 0.758278
5.02378 0.753237
5.02613 0.756512
5.02847 0.757656
5.03082 0.753488
5.03317 0.752043
5.03551 0.758941
5.03786 0.765141
5.0402 0.769336
5.04255 0.765286
5.04489 0.757919
5.04724 0.751013
5.04958 0.74635
5.05193 0.744739
5.05427 0.746931
5.05662 0.749527
5.05896 0.752016
5.06131 0.754803
5.06366 0.75856
5.066 0.758774
5.06835 0.765718
5.07069 0.769071
5.07304 0.768176
5.07538 0.771081
5.07773 0.783659
5.08007 0.785443
5.08242 0.772282
5.08476 0.763162
5.08711 0.769987
5.08945 0.774738
5.0918 0.766016
5.09415 0.770527
5.09649 0.778148
5.09884 0.780056
5.10118 0.772778
5.10353 0.773755
5.10587 0.777534
5.10822 0.783635
5.11056 0.789004
5.11291 0.792019
5.11525 0.795242
5.1176 0.799534
5.11994 0.795158
5.12229 0.794275
5.12464 0.796715
5.12698 0.79716
5.12933 0.816771
5.13167 0.801136
5.13402 0.798429
5.13636 0.800317
5.13871 0.803121
5.14105 0.830655
5.1434 0.848948
5.14574 0.837317
5.14809 0.823569
5.15043 0.825563
5.15278 0.845511
5.15512 0.842886
5.15747 0.860955
5.15982 0.866474
5.16216 0.868796
5.16451 0.875078
5.16685 0.878497
5.1692 0.882177
5.17154 0.89298
5.17389 0.895422
5.17623 0.892722
5.17858 0.89359
5.18092 0.888764
5.18327 0.905802
5.18561 0.916593
5.18796 0.925027
5.19031 0.930057
5.19265 0.921226
5.195 0.922682
5.19734 0.936316
5.19969 0.940602
5.20203 0.934828
5.20438 0.92648
5.20672 0.920449
5.20907 0.935235
5.21141 0.930742
5.21376 0.925709
5.2161 0.924108
5.21845 0.912613
5.2208 0.923261
5.22314 0.925716
5.22549 0.924953
5.22783 0.921643
5.23018 0.915527
5.23252 0.907171
5.23487 0.916045
5.23721 0.925085
5.23956 0.930332
5.2419 0.933862
5.24425 0.940012
5.24659 0.935301
5.24894 0.910239
5.25129 0.902798
5.25363 0.907569
5.25598 0.913544
5.25832 0.919846
5.26067 0.928082
5.26301 0.932732
5.26536 0.938684
5.2677 0.940503
5.27005 0.93056
5.27239 0.923642
5.27474 0.924618
5.27708 0.933823
5.27943 0.935925
5.28177 0.930991
5.28412 0.943425
5.28647 0.948324
5.28881 0.948556
5.29116 0.956109
5.2935 0.96488
5.29585 0.966153
5.29819 0.972585
5.30054 0.988063
5.30288 0.992071
5.30523 0.99051
5.30757 0.991347
5.30992 0.999439
5.31226 0.994316
5.31461 0.983233
5.31696 0.990543
5.3193 1.00217
5.32165 1.00546
5.32399 1.02309
5.32634 1.02373
5.32868 1.01066
5.33103 1.0003
5.33337 1.00174
5.33572 1.01491
5.33806 1.02478
5.34041 1.03623
5.34275 1.0344
5.3451 1.02931
5.34745 1.03052
5.34979 1.03678
5.35214 1.02828
5.35448 1.01611
5.35683 1.00791
5.35917 1.01284
5.36152 1.03134
5.36386 1.02552
5.36621 1.01572
5.36855 1.01057
5.3709 1.00916
5.37324 1.0096
5.37559 1.01034
5.37794 1.0074
5.38028 1.01422
5.38263 1.01627
5.38497 1.01287
5.38732 1.00718
5.38966 0.999176
5.39201 1.00716
5.39435 1.00545
5.3967 0.99194
5.39904 0.97734
5.40139 0.975983
5.40373 0.96572
5.40608 0.965399
5.40842 0.982094
5.41077 0.996873
5.41312 0.996356
5.41546 0.986749
5.41781 0.974314
5.42015 0.962924
5.4225 0.964257
5.42484 0.969363
5.42719 0.964307
5.42953 0.956856
5.43188 0.956979
5.43422 0.951247
5.43657 0.956152
5.43891 0.970088
5.44126 0.971372
5.44361 0.96976
5.44595 0.948941
5.4483 0.944043
5.45064 0.943124
5.45299 0.934364
5.45533 0.939043
5.45768 0.938242
5.46002 0.94093
5.46237 0.943738
5.46471 0.946551
5.46706 0.951111
5.4694 0.95568
5.47175 0.959608
5.4741 0.965241
5.47644 0.970536
5.47879 0.976557
5.48113 0.989067
5.48348 1.00778
5.48582 1.0245
5.48817 1.04351
5.49051 1.05884
5.49286 1.06922
5.4952 1.09821
5.49755 1.12188
5.49989 1.13438
5.50224 1.15278
5.50459 1.17843
5.50693 1.20168
5.50928 1.23796
5.51162 1.28142
5.51397 1.33126
5.51631 1.35611
5.51866 1.35531
5.521 1.38414
5.52335 1.41404
5.52569 1.4767
5.52804 1.50535
5.53038 1.51877
5.53273 1.55138
5.53507 1.55039
5.53742 1.5754
5.53977 1.57349
5.54211 1.56847
5.54446 1.56388
5.5468 1.54207
5.54915 1.5181
5.55149 1.47891
5.55384 1.44753
5.55618 1.41483
5.55853 1.37492
5.56087 1.34094
5.56322 1.30801
5.56556 1.2816
5.56791 1.25615
5.57026 1.22828
5.5726 1.19829
5.57495 1.17517
5.57729 1.14389
5.57964 1.13763
5.58198 1.13644
5.58433 1.1243
5.58667 1.09861
5.58902 1.08796
5.59136 1.08234
5.59371 1.07267
5.59605 1.05244
5.5984 1.02895
5.60075 1.0312
5.60309 1.05247
5.60544 1.05782
5.60778 1.04498
5.61013 1.03494
5.61247 1.04647
5.61482 1.04814
5.61716 1.03171
5.61951 1.02348
5.62185 1.03106
5.6242 1.03782
5.62654 1.01436
5.62889 0.998968
5.63124 0.995645
5.63358 0.996665
5.63593 0.993521
5.63827 0.980682
5.64062 0.9588
5.64296 0.941826
5.64531 0.929599
5.64765 0.926009
5.65 0.926569
5.65234 0.922599
5.65469 0.905068
5.65703 0.891285
5.65938 0.886153
5.66172 0.880464
5.66407 0.869757
5.66642 0.855775
5.66876 0.844457
5.67111 0.82728
5.67345 0.816853
5.6758 0.813433
5.67814 0.81282
5.68049 0.808546
5.68283 0.792771
5.68518 0.780002
5.68752 0.771417
5.68987 0.77313
5.69221 0.785122
5.69456 0.785142
5.69691 0.770532
5.69925 0.756608
5.7016 0.75256
5.70394 0.751265
5.70629 0.74034
5.70863 0.747005
5.71098 0.742769
5.71332 0.741005
5.71567 0.749507
5.71801 0.762764
5.72036 0.762458
5.7227 0.772413
5.72505 0.763954
5.7274 0.75354
5.72974 0.745901
5.73209 0.741001
5.73443 0.737178
5.73678 0.746075
5.73912 0.745025
5.74147 0.752206
5.74381 0.757975
5.74616 0.745126
5.7485 0.73722
5.75085 0.737919
5.75319 0.743196
5.75554 0.745428
5.75789 0.741799
5.76023 0.73599
5.76258 0.740615
5.76492 0.748293
5.76727 0.750609
5.76961 0.743653
5.77196 0.732134
5.7743 0.731822
5.77665 0.738319
5.77899 0.72621
5.78134 0.713595
5.78368 0.712217
5.78603 0.722728
5.78837 0.72407
5.79072 0.732241
5.79307 0.728366
5.79541 0.720753
5.79776 0.715719
5.8001 0.714693
5.80245 0.709132
5.80479 0.704664
5.80714 0.706268
5.80948 0.710577
5.81183 0.712872
5.81417 0.710091
5.81652 0.715761
5.81886 0.714591
5.82121 0.707087
5.82356 0.699574
5.8259 0.698459
5.82825 0.706391
5.83059 0.723564
5.83294 0.720269
5.83528 0.721174
5.83763 0.72397
5.83997 0.719535
5.84232 0.72131
5.84466 0.724733
5.84701 0.725868
5.84935 0.727303
5.8517 0.725305
5.85405 0.716194
5.85639 0.726993
5.85874 0.730748
5.86108 0.721744
5.86343 0.713883
5.86577 0.715564
5.86812 0.722963
5.87046 0.720019
5.87281 0.72876
5.87515 0.725495
5.8775 0.72247
5.87984 0.731359
5.88219 0.742595
5.88454 0.738565
5.88688 0.743713
5.88923 0.744998
5.89157 0.746733
5.89392 0.752648
5.89626 0.73913
5.89861 0.763578
5.90095 0.762932
5.9033 0.758908
5.90564 0.755503
5.90799 0.74623
5.91033 0.759696
5.91268 0.765681
5.91502 0.772859
5.91737 0.771466
5.91972 0.766512
5.92206 0.776217
5.92441 0.765381
5.92675 0.776999
5.9291 0.782383
5.93144 0.78443
5.93379 0.786095
5.93613 0.778727
5.93848 0.786053
5.94082 0.80026
5.94317 0.810686
5.94551 0.814819
5.94786 0.814443
5.95021 0.813024
5.95255 0.813611
5.9549 0.822803
5.95724 0.826945
5.95959 0.825857
5.96193 0.826034
5.96428 0.825475
5.96662 0.82612
5.96897 0.827723
5.97131 0.831528
5.97366 0.831332
5.976 0.8199
5.97835 0.823993
5.9807 0.833553
5.98304 0.845332
5.98539 0.844599
5.98773 0.839277
5.99008 0.861184
5.99242 0.870702
5.99477 0.863293
5.99711 0.856974
5.99946 0.860057
6.0018 0.870737
6.00415 0.875287
6.00649 0.871358
6.00884 0.875807
6.01119 0.868593
6.01353 0.860943
6.01588 0.870054
6.01822 0.893742
6.02057 0.882189
6.02291 0.881384
6.02526 0.889743
6.0276 0.893745
6.02995 0.885515
6.03229 0.900803
6.03464 0.880601
6.03698 0.879223
6.03933 0.888213
6.04167 0.896008
6.04402 0.894508
6.04637 0.87888
6.04871 0.895806
6.05106 0.907912
6.0534 0.909002
6.05575 0.909141
6.05809 0.925103
6.06044 0.916081
6.06278 0.905973
6.06513 0.91168
6.06747 0.918388
6.06982 0.914138
6.07216 0.905467
6.07451 0.931421
6.07686 0.941262
6.0792 0.934781
6.08155 0.919602
6.08389 0.909451
6.08624 0.922887
6.08858 0.936702
6.09093 0.937689
6.09327 0.942701
6.09562 0.943393
6.09796 0.930524
6.10031 0.928212
6.10265 0.922596
6.105 0.936664
6.10735 0.944628
6.10969 0.938729
6.11204 0.928405
6.11438 0.935022
6.11673 0.933223
6.11907 0.936062
6.12142 0.938632
6.12376 0.937099
6.12611 0.930918
6.12845 0.922861
6.1308 0.928956
6.13314 0.919562
6.13549 0.905586
6.13784 0.9013
6.14018 0.912686
6.14253 0.909685
6.14487 0.902626
6.14722 0.898294
6.14956 0.901935
6.15191 0.910042
6.15425 0.908199
6.1566 0.882087
6.15894 0.893213
6.16129 0.897902
6.16363 0.883173
6.16598 0.865253
6.16832 0.889437
6.17067 0.885835
6.17302 0.879979
6.17536 0.872982
6.17771 0.8707
6.18005 0.874322
6.1824 0.870971
6.18474 0.873029
6.18709 0.870256
6.18943 0.860232
6.19178 0.845983
6.19412 0.832938
6.19647 0.825268
6.19881 0.822432
6.20116 0.827899
6.20351 0.826993
6.20585 0.823983
6.2082 0.826538
6.21054 0.806691
6.21289 0.804389
6.21523 0.810135
6.21758 0.814462
6.21992 0.820211
6.22227 0.832615
6.22461 0.819991
6.22696 0.805887
6.2293 0.803402
6.23165 0.808535
6.234 0.815341
6.23634 0.817975
6.23869 0.805751
6.24103 0.799581
6.24338 0.800562
6.24572 0.801557
6.24807 0.795851
6.25041 0.781038
6.25276 0.768825
6.2551 0.770149
6.25745 0.781633
6.25979 0.78965
6.26214 0.791339
6.26449 0.798789
6.26683 0.791
6.26918 0.776226
6.27152 0.783741
6.27387 0.796079
6.27621 0.79629
6.27856 0.790377
6.2809 0.804423
6.28325 0.800887
6.28559 0.790563
6.28794 0.784219
6.29028 0.784015
6.29263 0.777792
6.29498 0.79276
6.29732 0.787783
6.29967 0.786554
6.30201 0.788551
6.30436 0.78528
6.3067 0.773066
6.30905 0.780962
6.31139 0.783787
6.31374 0.794751
6.31608 0.800455
6.31843 0.789315
6.32077 0.783892
6.32312 0.785431
6.32546 0.777824
6.32781 0.770097
6.33016 0.766349
6.3325 0.767818
6.33485 0.776846
6.33719 0.791745
6.33954 0.794506
6.34188 0.794745
6.34423 0.792631
6.34657 0.789034
6.34892 0.808186
6.35126 0.809121
6.35361 0.792845
6.35595 0.781464
6.3583 0.783205
6.36065 0.790817
6.36299 0.780504
6.36534 0.769529
6.36768 0.775788
6.37003 0.784837
6.37237 0.787279
6.37472 0.781175
6.37706 0.768842
6.37941 0.791558
6.38175 0.804291
6.3841 0.804046
6.38644 0.794914
6.38879 0.782562
6.39114 0.768281
6.39348 0.768805
6.39583 0.768998
6.39817 0.768169
6.40052 0.767807
6.40286 0.769359
6.40521 0.77153
6.40755 0.762599
6.4099 0.751042
6.41224 0.748814
6.41459 0.759864
6.41693 0.776457
6.41928 0.769941
6.42163 0.766587
6.42397 0.773649
6.42632 0.784153
6.42866 0.786372
6.43101 0.772782
6.43335 0.773367
6.4357 0.767174
6.43804 0.776076
6.44039 0.780667
6.44273 0.777417
6.44508 0.783034
6.44742 0.793316
6.44977 0.785837
6.45211 0.772511
6.45446 0.772936
6.45681 0.781137
6.45915 0.769088
6.4615 0.754157
6.46384 0.759594
6.46619 0.762626
6.46853 0.773769
6.47088 0.788411
6.47322 0.785137
6.47557 0.787164
6.47791 0.772751
6.48026 0.784389
6.4826 0.798289
6.48495 0.797586
6.4873 0.788479
6.48964 0.777108
6.49199 0.778123
6.49433 0.791494
6.49668 0.802508
6.49902 0.806243
6.50137 0.809692
6.50371 0.794477
6.50606 0.791603
6.5084 0.797605
6.51075 0.801203
6.51309 0.801019
6.51544 0.805652
6.51779 0.796567
6.52013 0.787646
6.52248 0.797267
6.52482 0.810976
6.52717 0.817447
6.52951 0.818876
6.53186 0.832272
6.5342 0.84532
6.53655 0.860333
6.53889 0.873155
6.54124 0.876206
6.54358 0.862478
6.54593 0.841881
6.54828 0.842737
6.55062 0.847104
6.55297 0.860983
6.55531 0.874353
6.55766 0.863727
6.56 0.860417
6.56235 0.873553
6.56469 0.891756
6.56704 0.899735
6.56938 0.896027
6.57173 0.893687
6.57407 0.899432
6.57642 0.914723
6.57876 0.900828
6.58111 0.890696
6.58346 0.896336
6.5858 0.901777
6.58815 0.929424
6.59049 0.926736
6.59284 0.923622
6.59518 0.923676
6.59753 0.924135
6.59987 0.920967
6.60222 0.916376
6.60456 0.918553
6.60691 0.916624
6.60925 0.914186
6.6116 0.918136
6.61395 0.930368
6.61629 0.922668
6.61864 0.921731
6.62098 0.924699
6.62333 0.90954
6.62567 0.892076
6.62802 0.906563
6.63036 0.920879
6.63271 0.918874
6.63505 0.917666
6.6374 0.916116
6.63974 0.908846
6.64209 0.895082
6.64444 0.899662
6.64678 0.92613
6.64913 0.928397
6.65147 0.917083
6.65382 0.905734
6.65616 0.903615
6.65851 0.912329
6.66085 0.906514
6.6632 0.89932
6.66554 0.903647
6.66789 0.915976
6.67023 0.924073
6.67258 0.922196
6.67493 0.93114
6.67727 0.925989
6.67962 0.921847
6.68196 0.920806
6.68431 0.91698
6.68665 0.907233
6.689 0.93059
6.69134 0.956145
6.69369 0.964934
6.69603 0.96366
6.69838 0.964815
6.70072 0.963058
6.70307 0.96852
6.70541 0.971017
6.70776 0.983461
6.71011 1.00293
6.71245 1.01722
6.7148 1.01228
6.71714 1.02113
6.71949 1.03008
6.72183 1.03837
6.72418 1.04268
6.72652 1.04472
6.72887 1.05571
6.73121 1.07957
6.73356 1.10865
6.7359 1.12081
6.73825 1.13145
6.7406 1.14892
6.74294 1.1535
6.74529 1.1345
6.74763 1.12835
6.74998 1.15631
6.75232 1.1903
6.75467 1.20573
6.75701 1.20157
6.75936 1.17816
6.7617 1.19321
6.76405 1.20948
6.76639 1.22391
6.76874 1.23656
6.77109 1.24697
6.77343 1.27869
6.77578 1.28607
6.77812 1.29181
6.78047 1.29593
6.78281 1.29803
6.78516 1.30262
6.7875 1.32606
6.78985 1.32629
6.79219 1.34207
6.79454 1.35106
6.79688 1.33852
6.79923 1.31012
6.80158 1.30288
6.80392 1.33339
6.80627 1.33027
6.80861 1.31293
6.81096 1.29767
6.8133 1.28828
6.81565 1.27247
6.81799 1.26295
6.82034 1.25927
6.82268 1.26634
6.82503 1.27318
6.82737 1.26975
6.82972 1.26681
6.83206 1.24804
6.83441 1.23913
6.83676 1.23917
6.8391 1.23425
6.84145 1.22094
6.84379 1.22193
6.84614 1.22359
6.84848 1.23352
6.85083 1.23878
6.85317 1.24067
6.85552 1.24808
6.85786 1.26809
6.86021 1.24096
6.86255 1.24302
6.8649 1.24332
6.86725 1.22707
6.86959 1.20834
6.87194 1.21924
6.87428 1.22206
6.87663 1.23239
6.87897 1.23728
6.88132 1.23246
6.88366 1.22859
6.88601 1.24097
6.88835 1.25185
6.8907 1.2699
6.89304 1.27035
6.89539 1.25857
6.89774 1.24655
6.90008 1.24262
6.90243 1.23671
6.90477 1.23531
6.90712 1.24122
6.90946 1.23681
6.91181 1.22918
6.91415 1.23393
6.9165 1.25192
6.91884 1.25762
6.92119 1.26066
6.92353 1.2562
6.92588 1.25514
6.92823 1.26479
6.93057 1.27457
6.93292 1.27358
6.93526 1.24655
6.93761 1.2436
6.93995 1.26107
6.9423 1.27375
6.94464 1.25722
6.94699 1.24199
6.94933 1.22611
6.95168 1.21323
6.95402 1.22133
6.95637 1.24575
6.95871 1.25833
6.96106 1.23886
6.96341 1.2421
6.96575 1.24561
6.9681 1.24903
6.97044 1.24786
6.97279 1.23695
6.97513 1.22491
6.97748 1.21976
6.97982 1.21146
6.98217 1.20609
6.98451 1.20698
6.98686 1.21175
6.9892 1.21046
6.99155 1.21252
6.9939 1.21038
6.99624 1.20666
6.99859 1.19978
7.00093 1.19117
7.00328 1.19023
7.00562 1.21655
7.00797 1.21818
7.01031 1.21333
7.01266 1.20334
7.015 1.19418
7.01735 1.19695
7.01969 1.1864
7.02204 1.19628
7.02439 1.19885
7.02673 1.18428
7.02908 1.16673
7.03142 1.16936
7.03377 1.17872
7.03611 1.17436
7.03846 1.15991
7.0408 1.16044
7.04315 1.16937
7.04549 1.16595
7.04784 1.14794
7.05018 1.14
7.05253 1.13753
7.05488 1.14525
7.05722 1.14743
7.05957 1.13258
7.06191 1.11201
7.06426 1.09695
7.0666 1.07913
7.06895 1.07354
7.07129 1.07542
7.07364 1.07754
7.07598 1.07624
7.07833 1.06293
7.08067 1.05875
7.08302 1.05863
7.08536 1.06087
7.08771 1.05603
7.09006 1.03456
7.0924 1.01063
7.09475 1.00903
7.09709 1.00614
7.09944 1.00559
7.10178 0.998982
7.10413 0.983367
7.10647 0.985484
7.10882 0.972981
7.11116 0.976867
7.11351 0.977314
7.11585 0.96909
7.1182 0.961267
7.12055 0.971646
7.12289 0.978863
7.12524 1.00606
7.12758 1.00932
7.12993 0.988638
7.13227 0.965248
7.13462 0.963496
7.13696 0.968975
7.13931 0.961874
7.14165 0.958589
7.144 0.9629
7.14634 0.967597
7.14869 0.965819
7.15104 0.970944
7.15338 0.984522
7.15573 0.979075
7.15807 0.978853
7.16042 0.981775
7.16276 0.981777
7.16511 0.987256
7.16745 0.967535
7.1698 0.954615
7.17214 0.944123
7.17449 0.94323
7.17683 0.951757
7.17918 0.958821
7.18153 0.962454
7.18387 0.974358
7.18622 0.981617
7.18856 0.97618
7.19091 0.967932
7.19325 0.973853
7.1956 0.991597
7.19794 1.003
7.20029 1.01355
7.20263 1.01839
7.20498 1.01783
7.20732 1.01869
7.20967 1.03274
7.21201 1.04148
7.21436 1.05427
7.21671 1.04616
7.21905 1.04673
7.2214 1.06794
7.22374 1.08525
7.22609 1.0978
7.22843 1.08383
7.23078 1.08615
7.23312 1.09896
7.23547 1.11789
7.23781 1.13829
7.24016 1.13549
7.2425 1.15959
7.24485 1.15497
7.2472 1.1405
7.24954 1.1339
7.25189 1.14179
7.25423 1.15463
7.25658 1.15913
7.25892 1.16911
7.26127 1.16601
7.26361 1.15626
7.26596 1.15469
7.2683 1.16988
7.27065 1.17008
7.27299 1.17477
7.27534 1.17576
7.27769 1.1777
7.28003 1.18163
7.28238 1.18744
7.28472 1.20133
7.28707 1.20451
7.28941 1.19463
7.29176 1.18371
7.2941 1.18105
7.29645 1.18913
7.29879 1.20126
7.30114 1.20069
7.30348 1.18184
7.30583 1.16404
7.30818 1.16903
7.31052 1.18976
7.31287 1.19456
7.31521 1.16237
7.31756 1.16847
7.3199 1.15296
7.32225 1.13938
7.32459 1.12741
7.32694 1.11209
7.32928 1.11247
7.33163 1.10608
7.33397 1.10249
7.33632 1.09067
7.33866 1.07303
7.34101 1.05865
7.34336 1.05579
7.3457 1.05269
7.34805 1.04664
7.35039 1.03481
7.35274 1.01302
7.35508 0.993209
7.35743 0.98736
7.35977 0.975853
7.36212 0.970478
7.36446 0.962749
7.36681 0.967385
7.36915 0.973046
7.3715 0.968141
7.37385 0.958423
7.37619 0.957118
7.37854 0.970565
7.38088 0.957121
7.38323 0.949095
7.38557 0.953474
7.38792 0.952155
7.39026 0.964692
7.39261 0.956645
7.39495 0.933494
7.3973 0.927448
7.39964 0.927135
7.40199 0.918173
7.40434 0.921234
7.40668 0.936273
7.40903 0.923508
7.41137 0.927291
7.41372 0.934486
7.41606 0.927027
7.41841 0.906459
7.42075 0.917167
7.4231 0.942806
7.42544 0.941293
7.42779 0.924895
7.43013 0.912285
7.43248 0.916478
7.43483 0.935771
7.43717 0.941449
7.43952 0.927058
7.44186 0.924749
7.44421 0.934739
7.44655 0.945305
7.4489 0.944033
7.45124 0.926209
7.45359 0.928753
7.45593 0.93134
7.45828 0.931322
7.46062 0.928349
7.46297 0.929821
7.46532 0.957347
7.46766 0.976852
7.47001 0.981609
7.47235 0.98138
7.4747 0.985691
7.47704 0.993645
7.47939 0.993355
7.48173 0.97959
7.48408 0.993203
7.48642 0.992969
7.48877 0.984642
7.49111 0.988651
7.49346 1.01574
7.4958 1.04115
7.49815 1.07437
7.5005 1.08646
7.50284 1.09166
7.50519 1.09155
7.50753 1.09091
7.50988 1.10147
7.51222 1.12528
7.51457 1.13895
7.51691 1.15275
7.51926 1.16444
7.5216 1.16192
7.52395 1.15011
7.52629 1.18212
7.52864 1.23087
7.53099 1.24155
7.53333 1.24967
7.53568 1.2657
7.53802 1.27974
7.54037 1.27923
7.54271 1.31574
7.54506 1.32104
7.5474 1.31558
7.54975 1.32294
7.55209 1.34395
7.55444 1.36607
7.55678 1.3811
7.55913 1.37598
7.56148 1.38222
7.56382 1.39473
7.56617 1.40125
7.56851 1.39539
7.57086 1.38216
7.5732 1.37759
7.57555 1.38968
7.57789 1.37218
7.58024 1.36385
7.58258 1.37046
7.58493 1.37485
7.58727 1.36306
7.58962 1.34519
7.59197 1.31534
7.59431 1.28472
7.59666 1.28323
7.599 1.29412
7.60135 1.27374
7.60369 1.26673
7.60604 1.24897
7.60838 1.23724
7.61073 1.22432
7.61307 1.21089
7.61542 1.20127
7.61776 1.19631
7.62011 1.17801
7.62245 1.17542
7.6248 1.16776
7.62715 1.16527
7.62949 1.16564
7.63184 1.15654
7.63418 1.14208
7.63653 1.12891
7.63887 1.12094
7.64122 1.11511
7.64356 1.11817
7.64591 1.12802
7.64825 1.12888
7.6506 1.12828
7.65294 1.11772
7.65529 1.10873
7.65764 1.10594
7.65998 1.11224
7.66233 1.1195
7.66467 1.09901
7.66702 1.08599
7.66936 1.07469
7.67171 1.0758
7.67405 1.07212
7.6764 1.06223
7.67874 1.06448
7.68109 1.06931
7.68343 1.06059
7.68578 1.05417
7.68813 1.06117
7.69047 1.06349
7.69282 1.05104
7.69516 1.04973
7.69751 1.04087
7.69985 1.05506
7.7022 1.04575
7.70454 1.02483
7.70689 1.01382
7.70923 1.02056
7.71158 1.02002
7.71392 1.03482
7.71627 1.03537
7.71862 1.02785
7.72096 1.0175
7.72331 1.00585
7.72565 0.995032
7.728 1.0158
7.73034 1.02708
7.73269 1.01849
7.73503 1.02006
7.73738 1.01687
7.73972 0.999109
7.74207 1.01811
7.74441 1.02676
7.74676 1.02782
7.7491 1.04394
7.75145 1.05623
7.7538 1.05838
7.75614 1.0597
7.75849 1.05417
7.76083 1.04535
7.76318 1.05598
7.76552 1.05789
7.76787 1.05841
7.77021 1.06876
7.77256 1.08309
7.7749 1.08242
7.77725 1.07991
7.77959 1.0697
7.78194 1.07923
7.78429 1.10163
7.78663 1.11656
7.78898 1.12407
7.79132 1.12021
7.79367 1.12367
7.79601 1.12737
7.79836 1.1389
7.8007 1.14842
7.80305 1.14159
7.80539 1.14525
7.80774 1.12834
7.81008 1.14298
7.81243 1.16235
7.81478 1.16402
7.81712 1.15341
7.81947 1.15833
7.82181 1.1597
7.82416 1.14178
7.8265 1.13178
7.82885 1.12126
7.83119 1.11528
7.83354 1.1181
7.83588 1.11816
7.83823 1.12431
7.84057 1.13089
7.84292 1.11072
7.84527 1.10584
7.84761 1.1091
7.84996 1.09103
7.8523 1.08826
7.85465 1.07104
7.85699 1.07699
7.85934 1.08757
7.86168 1.07598
7.86403 1.04674
7.86637 1.03538
7.86872 1.06
7.87106 1.06905
7.87341 1.05223
7.87575 1.02596
7.8781 1.00545
7.88045 1.00266
7.88279 1.01994
7.88514 1.01495
7.88748 1.03085
7.88983 1.04535
7.89217 1.04566
7.89452 1.03038
7.89686 1.00818
7.89921 0.992986
7.90155 0.987633
7.9039 0.986169
7.90624 0.983782
7.90859 0.996556
7.91094 1.01323
7.91328 1.00646
7.91563 0.975379
7.91797 0.992208
7.92032 0.991996
7.92266 0.971794
7.92501 0.958768
7.92735 0.965956
7.9297 0.978306
7.93204 0.96891
7.93439 0.96416
7.93673 0.945219
7.93908 0.929108
7.94143 0.927537
7.94377 0.938273
7.94612 0.949142
7.94846 0.973142
7.95081 0.962366
7.95315 0.935858
7.9555 0.946576
7.95784 0.963687
7.96019 0.945271
7.96253 0.915263
7.96488 0.922145
7.96722 0.920467
7.96957 0.936784
7.97192 0.943861
7.97426 0.943692
7.97661 0.948107
7.97895 0.935975
7.9813 0.919949
7.98364 0.92021
7.98599 0.924393
7.98833 0.923942
7.99068 0.928701
7.99302 0.947293
7.99537 0.946023
7.99771 0.933663
8.00006 0.933958
8.0024 0.931813
8.00475 0.924566
8.0071 0.914705
8.00944 0.907694
8.01179 0.915309
8.01413 0.91909
8.01648 0.914737
8.01882 0.919032
8.02117 0.929213
8.02351 0.935823
8.02586 0.934753
8.0282 0.937835
8.03055 0.955002
8.03289 0.953576
8.03524 0.94431
8.03759 0.945797
8.03993 0.964687
8.04228 0.987009
8.04462 0.995897
8.04697 1.00081
8.04931 1.02959
8.05166 1.02894
8.054 1.01733
8.05635 1.02442
8.05869 1.02735
8.06104 1.053
8.06338 1.04699
8.06573 1.04862
8.06808 1.06381
8.07042 1.08376
8.07277 1.09597
8.07511 1.09527
8.07746 1.09301
8.0798 1.10446
8.08215 1.10156
8.08449 1.10224
8.08684 1.10333
8.08918 1.09698
8.09153 1.10968
8.09387 1.08457
8.09622 1.08437
8.09857 1.0863
8.10091 1.09692
8.10326 1.09898
8.1056 1.07455
8.10795 1.06477
8.11029 1.0576
8.11264 1.0769
8.11498 1.09114
8.11733 1.09731
8.11967 1.08825
8.12202 1.0612
8.12436 1.05441
8.12671 1.05646
8.12905 1.06262
8.1314 1.04696
8.13375 1.05021
8.13609 1.06989
8.13844 1.06528
8.14078 1.07394
8.14313 1.05026
8.14547 1.04463
8.14782 1.0496
8.15016 1.07406
8.15251 1.09314
8.15485 1.06257
8.1572 1.01384
8.15954 1.00779
8.16189 1.01014
8.16424 1.0108
8.16658 1.00969
8.16893 1.01593
8.17127 1.02953
8.17362 0.992855
8.17596 0.990862
8.17831 0.990207
8.18065 0.993305
8.183 1.00662
8.18534 1.02301
8.18769 1.02489
8.19003 1.02147
8.19238 0.997863
8.19473 0.971992
8.19707 0.961999
8.19942 0.97146
8.20176 0.983663
8.20411 0.973745
8.20645 0.951164
8.2088 0.92904
8.21114 0.926954
8.21349 0.921729
8.21583 0.923696
8.21818 0.933057
8.22052 0.929414
8.22287 0.933857
8.22522 0.904147
8.22756 0.910403
8.22991 0.919344
8.23225 0.916624
8.2346 0.907592
8.23694 0.905371
8.23929 0.907211
8.24163 0.90939
8.24398 0.912559
8.24632 0.915863
8.24867 0.921397
8.25101 0.923081
8.25336 0.912012
8.2557 0.914037
8.25805 0.892155
8.2604 0.889776
8.26274 0.886505
8.26509 0.883336
8.26743 0.889061
8.26978 0.901518
8.27212 0.884779
8.27447 0.886683
8.27681 0.907273
8.27916 0.91164
8.2815 0.897042
8.28385 0.876514
8.28619 0.863105
8.28854 0.860182
8.29089 0.870947
8.29323 0.886005
8.29558 0.896451
8.29792 0.901206
8.30027 0.893439
8.30261 0.869273
8.30496 0.865809
8.3073 0.848456
8.30965 0.838745
8.31199 0.864378
8.31434 0.893519
8.31668 0.899113
8.31903 0.887808
8.32138 0.889541
8.32372 0.903688
8.32607 0.890941
8.32841 0.865936
8.33076 0.861893
8.3331 0.869175
8.33545 0.855671
8.33779 0.851086
8.34014 0.855975
8.34248 0.868043
8.34483 0.873956
8.34717 0.871456
8.34952 0.86527
8.35187 0.867167
8.35421 0.894087
8.35656 0.883222
8.3589 0.8664
8.36125 0.866072
8.36359 0.872001
8.36594 0.866675
8.36828 0.848346
8.37063 0.845009
8.37297 0.842181
8.37532 0.843999
8.37766 0.846403
8.38001 0.855612
8.38235 0.874826
8.3847 0.893934
8.38705 0.889753
8.38939 0.886575
8.39174 0.893614
8.39408 0.892338
8.39643 0.872527
8.39877 0.873277
8.40112 0.904249
8.40346 0.897447
8.40581 0.894259
8.40815 0.924509
8.4105 0.913892
8.41284 0.905229
8.41519 0.898359
8.41754 0.889071
8.41988 0.900603
8.42223 0.926461
8.42457 0.96094
8.42692 0.925541
8.42926 0.918113
8.43161 0.915711
8.43395 0.90573
8.4363 0.928833
8.43864 0.924714
8.44099 0.898158
8.44333 0.905551
8.44568 0.931918
8.44803 0.955507
8.45037 0.965258
8.45272 0.965273
8.45506 0.965749
8.45741 0.914739
8.45975 0.909208
8.4621 0.912027
8.46444 0.939683
8.46679 0.962581
8.46913 0.937892
8.47148 0.908097
8.47382 0.934137
8.47617 0.930006
8.47852 0.943847
8.48086 0.945246
8.48321 0.938859
8.48555 0.945589
8.4879 0.951302
8.49024 0.921054
8.49259 0.929337
8.49493 0.940431
8.49728 0.938748
8.49962 0.935774
8.50197 0.940851
8.50431 0.943131
8.50666 0.947727
8.509 0.926016
8.51135 0.906507
8.5137 0.902026
8.51604 0.899162
8.51839 0.888694
8.52073 0.877518
8.52308 0.86744
8.52542 0.900941
8.52777 0.931706
8.53011 0.937651
8.53246 0.926961
8.5348 0.913544
8.53715 0.912065
8.53949 0.944869
8.54184 0.969325
8.54419 0.940816
8.54653 0.928528
8.54888 0.930238
8.55122 0.932997
8.55357 0.925108
8.55591 0.899657
8.55826 0.916236
8.5606 0.914315
8.56295 0.895758
8.56529 0.893741
8.56764 0.890119
8.56998 0.876198
8.57233 0.884133
8.57468 0.879247
8.57702 0.867173
8.57937 0.876241
8.58171 0.887458
8.58406 0.890521
8.5864 0.892352
8.58875 0.90241
8.59109 0.897738
8.59344 0.870249
8.59578 0.860434
8.59813 0.874722
8.60047 0.886699
8.60282 0.877893
8.60517 0.856488
8.60751 0.85457
8.60986 0.871357
8.6122 0.88711
8.61455 0.887478
8.61689 0.888425
8.61924 0.891808
8.62158 0.892269
8.62393 0.890511
8.62627 0.890965
8.62862 0.877312
8.63096 0.888674
8.63331 0.897989
8.63565 0.896001
8.638 0.883054
8.64035 0.866071
8.64269 0.868155
8.64504 0.899661
8.64738 0.906178
8.64973 0.921268
8.65207 0.927163
8.65442 0.920374
8.65676 0.910888
8.65911 0.894467
8.66145 0.874066
8.6638 0.875097
8.66614 0.86057
8.66849 0.864661
8.67084 0.886836
8.67318 0.908164
8.67553 0.921577
8.67787 0.94026
8.68022 0.925655
8.68256 0.907189
8.68491 0.91111
8.68725 0.92081
8.6896 0.918867
8.69194 0.908247
8.69429 0.908337
8.69663 0.941666
8.69898 0.933263
8.70133 0.91778
8.70367 0.912176
8.70602 0.928139
8.70836 0.952208
8.71071 0.944745
8.71305 0.938513
8.7154 0.946539
8.71774 0.962099
8.72009 0.964141
8.72243 0.962482
8.72478 0.950754
8.72712 0.922186
8.72947 0.963806
8.73182 0.949404
8.73416 0.939437
8.73651 0.941273
8.73885 0.942026
8.7412 0.947767
8.74354 0.970212
8.74589 0.996545
8.74823 0.996665
8.75058 1.00162
8.75292 0.996071
8.75527 0.97632
8.75761 0.965729
8.75996 0.969726
8.76231 0.968665
8.76465 0.981505
8.767 0.974396
8.76934 0.982118
8.77169 0.983528
8.77403 0.992453
8.77638 0.998367
8.77872 0.98185
8.78107 0.955613
8.78341 0.905939
8.78576 0.92392
8.7881 0.94101
8.79045 0.929059
8.79279 0.906349
8.79514 0.902254
8.79749 0.920783
8.79983 0.922194
8.80218 0.89818
8.80452 0.893408
8.80687 0.896842
8.80921 0.910083
8.81156 0.92343
8.8139 0.917408
8.81625 0.884154
8.81859 0.884612
8.82094 0.907012
8.82328 0.923978
8.82563 0.929518
8.82798 0.909809
8.83032 0.876632
8.83267 0.865455
8.83501 0.872816
8.83736 0.877967
8.8397 0.876446
8.84205 0.87875
8.84439 0.874918
8.84674 0.873579
8.84908 0.882539
8.85143 0.882051
8.85377 0.882303
8.85612 0.878288
8.85847 0.870435
8.86081 0.856104
8.86316 0.838349
8.8655 0.830303
8.86785 0.848245
8.87019 0.891333
8.87254 0.866849
8.87488 0.851599
8.87723 0.832618
8.87957 0.854724
8.88192 0.890502
8.88426 0.893842
8.88661 0.874642
8.88896 0.855425
8.8913 0.87281
8.89365 0.873452
8.89599 0.867814
8.89834 0.861429
8.90068 0.863955
8.90303 0.877307
8.90537 0.87575
8.90772 0.86601
8.91006 0.867851
8.91241 0.858419
8.91475 0.870465
8.9171 0.878396
8.91944 0.864965
8.92179 0.858611
8.92414 0.861407
8.92648 0.845332
8.92883 0.879693
8.93117 0.901698
8.93352 0.916906
8.93586 0.931144
8.93821 0.936856
8.94055 0.925603
8.9429 0.895011
8.94524 0.912998
8.94759 0.941371
8.94993 0.922344
8.95228 0.904192
8.95463 0.921181
8.95697 0.949982
8.95932 0.961876
8.96166 0.970403
8.96401 0.96285
8.96635 0.957639
8.9687 0.954731
8.97104 0.954808
8.97339 0.958096
8.97573 0.961198
8.97808 0.958018
8.98042 0.967218
8.98277 0.96108
8.98512 0.96802
8.98746 0.986057
8.98981 0.988584
8.99215 0.964633
8.9945 0.945695
8.99684 0.947258
8.99919 0.965307
9.00153 0.985162
9.00388 0.998882
9.00622 1.00032
9.00857 0.994649
9.01091 0.994367
9.01326 1.00532
9.01561 1.0157
9.01795 1.01001
9.0203 1.00038
9.02264 1.012
9.02499 1.02591
9.02733 1.01195
9.02968 0.974517
9.03202 0.978301
9.03437 0.999455
9.03671 0.998617
9.03906 0.998411
9.0414 0.981304
9.04375 0.960149
9.04609 0.958329
9.04844 0.981989
9.05079 1.02875
9.05313 1.03145
9.05548 1.02916
9.05782 1.00914
9.06017 0.995941
9.06251 1.00107
9.06486 1.01456
9.0672 1.02255
9.06955 1.03915
9.07189 1.03823
9.07424 1.04042
9.07658 1.04972
9.07893 1.0604
9.08128 1.05925
9.08362 1.04293
9.08597 1.03262
9.08831 1.03753
9.09066 1.05524
9.093 1.05537
9.09535 1.04635
9.09769 1.02513
9.10004 1.00749
9.10238 1.0066
9.10473 0.983021
9.10707 0.974124
9.10942 0.977138
9.11177 0.987122
9.11411 0.984326
9.11646 0.972143
9.1188 0.975215
9.12115 1.00569
9.12349 1.01549
9.12584 0.976417
9.12818 0.987889
9.13053 0.979305
9.13287 0.971686
9.13522 0.972249
9.13756 0.971898
9.13991 0.963982
9.14226 0.95657
9.1446 0.973227
9.14695 0.968792
9.14929 0.974957
9.15164 0.970391
9.15398 0.959435
9.15633 0.963011
9.15867 0.980529
9.16102 0.958983
9.16336 0.963937
9.16571 0.937992
9.16805 0.905086
9.1704 0.901207
9.17274 0.934562
9.17509 0.967654
9.17744 0.95759
9.17978 0.987241
9.18213 0.969904
9.18447 0.944689
9.18682 0.924684
9.18916 0.905755
9.19151 0.893069
9.19385 0.88367
9.1962 0.862992
9.19854 0.879827
9.20089 0.89177
9.20323 0.882899
9.20558 0.894293
9.20793 0.89557
9.21027 0.886104
9.21262 0.883427
9.21496 0.879202
9.21731 0.864807
9.21965 0.849495
9.222 0.863895
9.22434 0.876322
9.22669 0.874873
9.22903 0.882042
9.23138 0.910303
9.23372 0.924625
9.23607 0.898184
9.23842 0.914847
9.24076 0.896722
9.24311 0.906215
9.24545 0.907615
9.2478 0.893717
9.25014 0.876877
9.25249 0.853155
9.25483 0.901366
9.25718 0.936152
9.25952 0.93248
9.26187 0.905141
9.26421 0.887642
9.26656 0.887918
9.26891 0.896137
9.27125 0.907167
9.2736 0.90971
9.27594 0.917933
9.27829 0.914518
9.28063 0.917504
9.28298 0.919919
9.28532 0.920829
9.28767 0.923324
9.29001 0.925655
9.29236 0.934848
9.2947 0.923404
9.29705 0.888029
9.29939 0.881279
9.30174 0.904548
9.30409 0.923422
9.30643 0.923904
9.30878 0.930214
9.31112 0.920691
9.31347 0.938496
9.31581 0.925105
9.31816 0.930437
9.3205 0.941752
9.32285 0.943689
9.32519 0.933323
9.32754 0.921563
9.32988 0.935451
9.33223 0.923438
9.33458 0.927258
9.33692 0.931017
9.33927 0.950139
9.34161 0.964094
9.34396 0.967172
9.3463 0.98295
9.34865 0.9901
9.35099 0.975265
9.35334 1.00707
9.35568 1.01697
9.35803 1.01824
9.36037 1.00722
9.36272 0.995131
9.36507 1.00962
9.36741 1.04078
9.36976 1.05866
9.3721 1.08677
9.37445 1.13308
9.37679 1.13875
9.37914 1.13221
9.38148 1.11845
9.38383 1.08815
9.38617 1.11085
9.38852 1.1385
9.39086 1.11928
9.39321 1.13955
9.39556 1.15808
9.3979 1.15373
9.40025 1.14003
9.40259 1.13333
9.40494 1.12438
9.40728 1.13349
9.40963 1.1677
9.41197 1.15248
9.41432 1.14572
9.41666 1.15077
9.41901 1.14875
9.42135 1.14268
9.4237 1.15698
9.42604 1.14949
9.42839 1.12281
9.43074 1.11503
9.43308 1.12696
9.43543 1.14208
9.43777 1.1324
9.44012 1.10112
9.44246 1.08513
9.44481 1.09075
9.44715 1.10589
9.4495 1.12367
9.45184 1.11876
9.45419 1.13978
9.45653 1.15163
9.45888 1.138
9.46123 1.12572
9.46357 1.10357
9.46592 1.07156
9.46826 1.08723
9.47061 1.09986
9.47295 1.10394
9.4753 1.09141
9.47764 1.07822
9.47999 1.07868
9.48233 1.07708
9.48468 1.09452
9.48702 1.12563
9.48937 1.12956
9.49172 1.11922
9.49406 1.12276
9.49641 1.12223
9.49875 1.10179
9.5011 1.08889
9.50344 1.10553
9.50579 1.09548
9.50813 1.06635
9.51048 1.06629
9.51282 1.08588
9.51517 1.10253
9.51751 1.11684
9.51986 1.13319
9.52221 1.11608
9.52455 1.09918
9.5269 1.07691
9.52924 1.08688
9.53159 1.0977
9.53393 1.1183
9.53628 1.12934
9.53862 1.11373
9.54097 1.1084
9.54331 1.13595
9.54566 1.11163
9.548 1.10394
9.55035 1.12017
9.55269 1.12054
9.55504 1.09066
9.55739 1.06654
9.55973 1.08997
9.56208 1.12138
9.56442 1.12297
9.56677 1.10032
9.56911 1.09346
9.57146 1.11909
9.5738 1.12404
9.57615 1.09408
9.57849 1.06891
9.58084 1.07386
9.58318 1.08531
9.58553 1.07718
9.58788 1.10191
9.59022 1.09051
9.59257 1.09334
9.59491 1.09157
9.59726 1.07945
9.5996 1.10283
9.60195 1.09756
9.60429 1.11055
9.60664 1.12013
9.60898 1.11494
9.61133 1.08876
9.61367 1.05798
9.61602 1.04707
9.61837 1.05599
9.62071 1.05116
9.62306 1.05398
9.6254 1.03212
9.62775 1.06258
9.63009 1.06965
9.63244 1.05002
9.63478 1.02438
9.63713 1.01904
9.63947 1.04066
9.64182 1.04026
9.64416 1.03282
9.64651 1.00768
9.64886 1.0329
9.6512 1.04916
9.65355 1.02712
9.65589 0.999938
9.65824 0.993655
9.66058 0.973349
9.66293 0.986334
9.66527 0.974799
9.66762 1.0116
9.66996 1.02039
9.67231 0.995865
9.67465 0.98458
9.677 1.00017
9.67934 1.01073
9.68169 1.01679
9.68404 0.997377
9.68638 0.983003
9.68873 0.992978
9.69107 0.994928
9.69342 0.995447
9.69576 0.991728
9.69811 0.981559
9.70045 0.982938
9.7028 0.994744
9.70514 1.00215
9.70749 0.991397
9.70983 1.00175
9.71218 1.00018
9.71453 0.984978
9.71687 0.97447
9.71922 0.988493
9.72156 1.03183
9.72391 1.03061
9.72625 1.0147
9.7286 0.99821
9.73094 0.971536
9.73329 0.963577
9.73563 0.97835
9.73798 0.996603
9.74032 0.994491
9.74267 0.959901
9.74502 0.982493
9.74736 1.00511
9.74971 1.00852
9.75205 1.00939
9.7544 1.00141
9.75674 1.00645
9.75909 1.03242
9.76143 1.04318
9.76378 1.0432
9.76612 1.03191
9.76847 1.04689
9.77081 1.05529
9.77316 1.03863
9.77551 1.02549
9.77785 1.03723
9.7802 1.05511
9.78254 1.04663
9.78489 1.05314
9.78723 1.04258
9.78958 1.0251
9.79192 1.03764
9.79427 1.04757
9.79661 1.04305
9.79896 1.04473
9.8013 1.07017
9.80365 1.09424
9.80599 1.07402
9.80834 1.05558
9.81069 1.02928
9.81303 1.01184
9.81538 1.00232
9.81772 1.0083
9.82007 1.02407
9.82241 1.02259
9.82476 0.990524
9.8271 0.986102
9.82945 0.990291
9.83179 0.959543
9.83414 0.954611
9.83648 0.971046
9.83883 0.989744
9.84118 1.00011
9.84352 0.998356
9.84587 0.984103
9.84821 0.99963
9.85056 0.971144
9.8529 0.939067
9.85525 0.952782
9.85759 0.976281
9.85994 0.995161
9.86228 1.00587
9.86463 0.991519
9.86697 0.980065
9.86932 0.970571
9.87167 0.946669
9.87401 0.958775
9.87636 0.960894
9.8787 0.94193
9.88105 0.92974
9.88339 0.94639
9.88574 0.978235
9.88808 1.0044
9.89043 0.993272
9.89277 0.956897
9.89512 0.917977
9.89746 0.942914
9.89981 0.967282
9.90216 0.955378
9.9045 0.931736
9.90685 0.921268
9.90919 0.931611
9.91154 0.946015
9.91388 0.922512
9.91623 0.910425
9.91857 0.920881
9.92092 0.93891
9.92326 0.950715
9.92561 0.951492
9.92795 0.946978
9.9303 0.963662
9.93264 0.981631
9.93499 0.986655
9.93734 0.98097
9.93968 0.962499
9.94203 0.931341
9.94437 0.914867
9.94672 0.923805
9.94906 0.932549
9.95141 0.959861
9.95375 0.967946
9.9561 0.97831
9.95844 0.96453
9.96079 0.958279
9.96313 0.955721
9.96548 0.943773
9.96783 0.936704
9.97017 0.959417
9.97252 0.974267
9.97486 0.974272
9.97721 0.992229
9.97955 0.984886
9.9819 0.959915
9.98424 0.949191
9.98659 0.952714
9.98893 0.966667
9.99128 0.993036
9.99362 0.985948
9.99597 0.975612
9.99832 0.967889
10.0007 0.942652
10.003 0.922023
10.0054 0.930951
10.0077 0.943925
10.01 0.950901
10.0124 0.969527
10.0147 0.964769
10.0171 0.949727
10.0194 0.958318
10.0218 0.938849
10.0241 0.947075
10.0265 0.932353
10.0288 0.917263
10.0312 0.927702
10.0335 0.942917
10.0358 0.953497
10.0382 0.968467
10.0405 0.926105
10.0429 0.894924
10.0452 0.893965
10.0476 0.909173
10.0499 0.927999
10.0523 0.939943
10.0546 0.939133
10.0569 0.926416
10.0593 0.892149
10.0616 0.872478
10.064 0.902163
10.0663 0.912688
10.0687 0.929586
10.071 0.951171
10.0734 0.950439
10.0757 0.930085
10.0781 0.931981
10.0804 0.948123
10.0827 0.921449
10.0851 0.915864
10.0874 0.927764
10.0898 0.949753
10.0921 0.946603
10.0945 0.931874
10.0968 0.924729
10.0992 0.919316
10.1015 0.926369
10.1039 0.922988
10.1062 0.937571
10.1085 0.973994
10.1109 0.992912
10.1132 0.979877
10.1156 0.95489
10.1179 0.932583
10.1203 0.91699
10.1226 0.920508
10.125 0.932979
10.1273 0.950062
10.1297 0.920422
10.132 0.936461
10.1343 0.957588
10.1367 0.97328
10.139 0.965878
10.1414 0.942034
10.1437 0.948031
10.1461 0.977609
10.1484 1.01649
10.1508 0.987141
10.1531 1.00133
10.1555 1.02536
10.1578 1.0336
10.1601 1.04024
10.1625 1.03647
10.1648 1.00706
10.1672 1.00169
10.1695 1.01276
10.1719 1.0397
10.1742 1.04162
10.1766 1.07324
10.1789 1.11123
10.1813 1.12241
10.1836 1.10725
10.1859 1.10015
10.1883 1.1192
10.1906 1.10957
10.193 1.09652
10.1953 1.07989
10.1977 1.06695
10.2 1.09594
10.2024 1.12678
10.2047 1.12155
10.2071 1.09622
10.2094 1.0824
10.2117 1.06692
10.2141 1.07387
10.2164 1.09424
10.2188 1.08234
10.2211 1.09716
10.2235 1.0904
10.2258 1.08377
10.2282 1.07912
10.2305 1.06699
10.2329 1.06599
10.2352 1.07605
10.2375 1.10514
10.2399 1.10216
10.2422 1.10441
10.2446 1.12355
10.2469 1.1181
10.2493 1.1025
10.2516 1.09722
10.254 1.10008
10.2563 1.10814
10.2587 1.10394
10.261 1.117
10.2633 1.13225
10.2657 1.10596
10.268 1.1057
10.2704 1.10793
10.2727 1.12499
10.2751 1.14428
10.2774 1.13896
10.2798 1.17408
10.2821 1.15319
10.2845 1.11516
10.2868 1.07051
10.2891 1.0476
10.2915 1.07784
10.2938 1.12064
10.2962 1.14318
10.2985 1.1233
10.3009 1.0604
10.3032 1.04506
10.3056 1.06407
10.3079 1.11141
10.3102 1.11233
10.3126 1.08581
10.3149 1.05785
10.3173 1.05453
10.3196 1.07172
10.322 1.08336
10.3243 1.08042
10.3267 1.08602
10.329 1.07782
10.3314 1.06308
10.3337 1.06037
10.336 1.07415
10.3384 1.09264
10.3407 1.11153
10.3431 1.11689
10.3454 1.09382
10.3478 1.0637
10.3501 1.08059
10.3525 1.02568
10.3548 1.01611
10.3572 1.01666
10.3595 1.02129
10.3618 1.0363
10.3642 1.03431
10.3665 1.0121
10.3689 1.0027
10.3712 1.00608
10.3736 0.966279
10.3759 0.971885
10.3783 1.00896
10.3806 1.00231
10.383 0.988053
10.3853 0.980364
10.3876 0.976172
10.39 0.986211
10.3923 1.00791
10.3947 0.992725
10.397 0.961206
10.3994 0.958478
10.4017 0.97608
10.4041 0.994437
10.4064 1.01923
10.4088 1.0007
10.4111 0.963697
10.4134 0.953248
10.4158 0.971091
10.4181 0.999588
10.4205 0.996239
10.4228 0.966811
10.4252 0.966793
10.4275 0.978747
10.4299 0.990699
10.4322 0.978967
10.4346 0.968295
10.4369 0.972666
10.4392 0.984087
10.4416 1.00804
10.4439 0.964041
10.4463 0.948609
10.4486 0.940841
10.451 0.941827
10.4533 0.949508
10.4557 0.964491
10.458 0.97986
10.4604 0.975595
10.4627 0.951583
10.465 0.945854
10.4674 0.956847
10.4697 0.996221
10.4721 0.993032
10.4744 0.974232
10.4768 0.965684
10.4791 0.969509
10.4815 0.976401
10.4838 0.979342
10.4862 0.976494
10.4885 0.972696
10.4908 0.987107
10.4932 1.00962
10.4955 0.96971
10.4979 0.976825
10.5002 1.00347
10.5026 1.00541
10.5049 1.00749
10.5073 1.00619
10.5096 0.987487
10.512 0.983105
10.5143 0.995669
10.5166 0.986191
10.519 1.01527
10.5213 1.00163
10.5237 1.00096
10.526 0.982333
10.5284 0.964533
10.5307 0.946889
10.5331 0.936203
10.5354 0.965763
10.5378 1.01405
10.5401 1.00413
10.5424 0.992999
10.5448 0.992429
10.5471 0.986376
10.5495 0.975631
10.5518 0.973636
10.5542 0.986389
10.5565 0.996584
10.5589 1.00257
10.5612 1.03225
10.5635 1.0252
10.5659 1.00349
10.5682 1.0087
10.5706 0.998077
10.5729 1.00549
10.5753 0.997048
10.5776 0.983081
10.58 0.968338
10.5823 0.953038
10.5847 0.958036
10.587 0.975937
10.5893 0.990881
10.5917 1.00984
10.594 1.01837
10.5964 1.01585
10.5987 0.977663
10.6011 0.964575
10.6034 0.971039
10.6058 0.966905
10.6081 0.965896
10.6105 0.977691
10.6128 0.972371
10.6151 0.99111
10.6175 0.99365
10.6198 0.960435
10.6222 0.950286
10.6245 0.94102
10.6269 0.954575
10.6292 0.973606
10.6316 0.967591
10.6339 0.963369
10.6363 0.969392
10.6386 0.943018
10.6409 0.97916
10.6433 0.973074
10.6456 0.958336
10.648 0.958064
10.6503 0.961277
10.6527 0.980974
10.655 0.999862
10.6574 0.990536
10.6597 0.987196
10.6621 0.989203
10.6644 1.01068
10.6667 1.00365
10.6691 0.970482
10.6714 0.981611
10.6738 1.02474
10.6761 1.03872
10.6785 1.01596
10.6808 0.996794
10.6832 1.0014
10.6855 1.01082
10.6879 1.01708
10.6902 1.0043
10.6925 0.996343
10.6949 1.01235
10.6972 1.01447
10.6996 1.01927
10.7019 1.02054
10.7043 0.999696
10.7066 0.982163
10.709 1.0093
10.7113 1.03297
10.7137 1.03923
10.716 1.03056
10.7183 1.0358
10.7207 1.03056
10.723 1.03092
10.7254 1.02706
10.7277 1.01684
10.7301 1.01468
10.7324 1.02833
10.7348 1.03891
10.7371 1.02191
10.7395 1.01069
10.7418 1.0071
10.7441 1.03517
10.7465 1.03457
10.7488 1.03469
10.7512 1.05172
10.7535 1.05545
10.7559 1.03687
10.7582 1.01426
10.7606 0.988285
10.7629 0.981757
10.7653 1.03653
10.7676 1.03875
10.7699 1.03923
10.7723 1.0135
10.7746 0.995008
10.777 0.99676
10.7793 1.00773
10.7817 1.02963
10.784 1.06274
10.7864 1.07392
10.7887 1.04401
10.7911 0.975018
10.7934 1.02183
10.7957 1.07399
10.7981 1.06359
10.8004 1.01435
10.8028 0.99615
10.8051 1.00755
10.8075 1.02385
10.8098 1.02096
10.8122 0.983354
10.8145 1.00165
10.8168 1.00932
10.8192 0.97619
10.8215 0.979193
10.8239 0.995275
10.8262 1.02624
10.8286 1.01657
10.8309 1.01753
10.8333 1.01978
10.8356 0.981949
10.838 0.972497
10.8403 1.00148
10.8426 1.04543
10.845 1.01511
10.8473 0.98536
10.8497 0.977534
10.852 0.96981
10.8544 0.950224
10.8567 0.980625
10.8591 1.02572
10.8614 1.02253
10.8638 1.01272
10.8661 1.01356
10.8684 0.997783
10.8708 1.00401
10.8731 0.988448
10.8755 0.966133
10.8778 0.954669
10.8802 0.963427
10.8825 0.952843
10.8849 0.961154
10.8872 0.984353
10.8896 0.957463
10.8919 0.948849
10.8942 0.996358
10.8966 1.01426
10.8989 0.986547
10.9013 0.991941
10.9036 0.978519
10.906 0.979566
10.9083 0.998324
10.9107 0.995807
10.913 0.959151
10.9154 0.925427
10.9177 0.931362
10.92 0.971599
10.9224 1.01482
10.9247 1.02514
10.9271 0.990875
10.9294 1.01204
10.9318 0.994477
10.9341 0.95333
10.9365 0.936578
10.9388 0.936418
10.9412 0.943772
10.9435 0.962901
10.9458 0.948159
10.9482 0.965531
10.9505 0.940529
10.9529 0.918128
10.9552 0.936046
10.9576 0.96401
10.9599 0.983175
10.9623 0.976429
10.9646 0.95677
10.967 0.949169
10.9693 0.964067
10.9716 0.992448
10.974 1.00539
10.9763 0.961303
10.9787 0.926314
10.981 0.971833
10.9834 1.00328
10.9857 0.997535
10.9881 0.967796
10.9904 0.969762
10.9928 0.997871
10.9951 1.023
10.9974 1.04643
10.9998 1.06181
11.0021 1.06625
11.0045 1.05667
11.0068 1.08454
11.0092 1.05407
11.0115 1.04233
11.0139 1.05623
11.0162 1.04545
11.0186 1.0156
11.0209 1.00336
11.0232 1.01553
11.0256 1.02658
11.0279 1.0229
11.0303 1.02152
11.0326 1.05503
11.035 1.07907
11.0373 1.10981
11.0397 1.11339
11.042 1.08867
11.0444 1.06557
11.0467 1.0662
11.049 1.07702
11.0514 1.08529
11.0537 1.10212
11.0561 1.11591
11.0584 1.10894
11.0608 1.16683
11.0631 1.16581
11.0655 1.14467
11.0678 1.1242
11.0701 1.14881
11.0725 1.15254
11.0748 1.13395
11.0772 1.13056
11.0795 1.13563
11.0819 1.12639
11.0842 1.12686
11.0866 1.13125
11.0889 1.10869
11.0913 1.12022
11.0936 1.1404
11.0959 1.14621
11.0983 1.1676
11.1006 1.1684
11.103 1.1526
11.1053 1.14513
11.1077 1.13462
11.11 1.11533
11.1124 1.14136
11.1147 1.18057
11.1171 1.16904
11.1194 1.13842
11.1217 1.1067
11.1241 1.12362
11.1264 1.13656
11.1288 1.12981
11.1311 1.11988
11.1335 1.12242
11.1358 1.115
11.1382 1.07973
11.1405 1.0597
11.1429 1.04358
11.1452 1.07323
11.1475 1.09634
11.1499 1.069
11.1522 1.05415
11.1546 1.05831
11.1569 1.05982
11.1593 1.06415
11.1616 1.07239
11.164 1.07377
11.1663 1.07157
11.1687 1.06496
11.171 1.01585
11.1733 1.03972
11.1757 1.06964
11.178 1.09385
11.1804 1.12029
11.1827 1.10803
11.1851 1.07955
11.1874 1.06401
11.1898 1.07252
11.1921 1.07309
11.1945 1.03866
11.1968 1.01057
11.1991 1.04145
11.2015 1.06632
11.2038 1.04033
11.2062 1.02603
11.2085 1.07088
11.2109 1.06862
11.2132 1.06672
11.2156 1.08557
11.2179 1.08293
11.2203 1.07833
11.2226 1.08233
11.2249 1.07849
11.2273 1.08737
11.2296 1.04219
11.232 1.04463
11.2343 1.03454
11.2367 1.0621
11.239 1.08282
11.2414 1.03526
11.2437 1.03644
11.2461 1.0584
11.2484 1.07969
11.2507 1.10935
11.2531 1.11496
11.2554 1.07544
11.2578 1.06046
11.2601 1.06304
11.2625 1.06208
11.2648 1.09187
11.2672 1.12133
11.2695 1.14121
11.2719 1.13552
11.2742 1.10992
11.2765 1.10886
11.2789 1.12718
11.2812 1.1365
11.2836 1.12967
11.2859 1.11741
11.2883 1.11485
11.2906 1.10795
11.293 1.07643
11.2953 1.08648
11.2977 1.08303
11.3 1.07491
11.3023 1.08752
11.3047 1.09057
11.307 1.08463
11.3094 1.08702
11.3117 1.10465
11.3141 1.1272
11.3164 1.13752
11.3188 1.13444
11.3211 1.1397
11.3234 1.13668
11.3258 1.11077
11.3281 1.08722
11.3305 1.07218
11.3328 1.07937
11.3352 1.09581
11.3375 1.11717
11.3399 1.1422
11.3422 1.14304
11.3446 1.12777
11.3469 1.13142
11.3492 1.10915
11.3516 1.08986
11.3539 1.06713
11.3563 1.06997
11.3586 1.09369
11.361 1.07437
11.3633 1.07041
11.3657 1.06529
11.368 1.07861
11.3704 1.09605
11.3727 1.09712
11.375 1.08367
11.3774 1.06837
11.3797 1.08002
11.3821 1.13262
11.3844 1.0988
11.3868 1.08064
11.3891 1.09911
11.3915 1.07642
11.3938 1.07683
11.3962 1.12407
11.3985 1.14687
11.4008 1.15289
11.4032 1.15518
11.4055 1.13756
11.4079 1.1035
11.4102 1.07172
11.4126 1.04514
11.4149 1.06702
11.4173 1.07471
11.4196 1.0813
11.422 1.09309
11.4243 1.06099
11.4266 1.05466
11.429 1.05931
11.4313 1.07173
11.4337 1.07347
11.436 1.05386
11.4384 1.04063
11.4407 1.04821
11.4431 1.04376
11.4454 1.05182
11.4478 1.0988
11.4501 1.10469
11.4524 1.08308
11.4548 1.06463
11.4571 1.06476
11.4595 1.06069
11.4618 1.03034
11.4642 1.00944
11.4665 1.01616
11.4689 1.03469
11.4712 1.03609
11.4736 1.02198
11.4759 1.03896
11.4782 1.02695
11.4806 1.00864
11.4829 1.0119
11.4853 1.00753
11.4876 1.00222
11.49 0.99865
11.4923 1.01541
11.4947 1.01938
11.497 1.02006
11.4994 1.02579
11.5017 1.02781
11.504 1.02531
11.5064 1.02822
11.5087 1.04781
11.5111 1.08136
11.5134 1.108
11.5158 1.0432
11.5181 1.01115
11.5205 1.04294
11.5228 1.0611
11.5252 1.05223
11.5275 1.05118
11.5298 1.04655
11.5322 1.04007
11.5345 1.0411
11.5369 1.04081
11.5392 1.04154
11.5416 1.05002
11.5439 1.0251
11.5463 0.99244
11.5486 1.01175
11.551 1.02101
11.5533 0.994226
11.5556 1.02165
11.558 1.05524
11.5603 1.06667
11.5627 1.0687
11.565 1.05799
11.5674 1.02755
11.5697 1.00368
11.5721 1.01151
11.5744 1.02918
11.5767 1.04207
11.5791 1.03927
11.5814 1.02763
11.5838 1.0156
11.5861 1.01893
11.5885 1.05504
11.5908 1.08802
11.5932 1.09853
11.5955 1.06801
11.5979 1.043
11.6002 1.0478
11.6025 1.05255
11.6049 1.03064
11.6072 0.992276
11.6096 0.979437
11.6119 1.01844
11.6143 1.0094
11.6166 0.984133
11.619 0.999124
11.6213 1.01524
11.6237 1.01471
11.626 0.969501
11.6283 1.00462
11.6307 1.02405
11.633 1.00905
11.6354 1.01455
11.6377 1.03457
11.6401 1.04312
11.6424 1.03833
11.6448 1.01385
11.6471 0.999128
11.6495 0.999894
11.6518 1.00481
11.6541 1.01683
11.6565 1.04091
11.6588 1.04078
11.6612 1.01972
11.6635 0.995794
11.6659 0.993861
11.6682 0.991573
11.6706 0.987835
11.6729 1.00153
11.6753 1.02259
11.6776 1.03973
11.6799 1.04301
11.6823 1.05902
11.6846 1.01223
11.687 1.02503
11.6893 1.05063
11.6917 1.04015
11.694 1.03829
11.6964 1.02551
11.6987 1.0214
11.7011 0.998532
11.7034 0.985234
11.7057 1.01473
11.7081 1.04616
11.7104 1.02449
11.7128 0.980151
11.7151 0.999781
11.7175 1.05269
11.7198 1.08051
11.7222 1.05234
11.7245 1.0377
11.7269 1.0672
11.7292 1.08647
11.7315 1.08405
11.7339 1.06603
11.7362 1.02594
11.7386 0.991771
11.7409 1.00961
11.7433 1.04159
11.7456 1.04055
11.748 1.05252
11.7503 1.06918
11.7527 1.03028
11.755 1.02858
11.7573 1.05857
11.7597 1.10897
11.762 1.1225
11.7644 1.11227
11.7667 1.08451
11.7691 1.08018
11.7714 1.06832
11.7738 1.07023
11.7761 1.06328
11.7785 1.02812
11.7808 1.01647
11.7831 1.04022
11.7855 1.04432
11.7878 1.05905
11.7902 1.04759
11.7925 1.05885
11.7949 1.03307
11.7972 1.01408
11.7996 0.995451
11.8019 1.03654
11.8043 1.05429
11.8066 1.0538
11.8089 1.03842
11.8113 1.04793
11.8136 1.0574
11.816 1.04788
11.8183 1.05513
11.8207 1.07432
11.823 1.06511
11.8254 1.06103
11.8277 1.06014
11.83 1.04546
11.8324 1.01434
11.8347 1.01419
11.8371 1.06596
11.8394 1.07958
11.8418 1.03784
11.8441 1.014
11.8465 1.02512
11.8488 1.00428
11.8512 0.977813
11.8535 0.969742
11.8558 0.971068
11.8582 1.00769
11.8605 1.06584
11.8629 1.07187
11.8652 1.05693
11.8676 1.02575
11.8699 0.973073
11.8723 0.918811
11.8746 0.951891
11.877 0.983226
11.8793 0.993622
11.8816 0.996522
11.884 1.00876
11.8863 0.974202
11.8887 0.946129
11.891 0.94328
11.8934 0.945576
11.8957 0.962934
11.8981 0.97422
11.9004 0.94416
11.9028 0.92748
11.9051 0.965719
11.9074 0.973681
11.9098 0.970091
11.9121 0.950224
11.9145 0.95865
11.9168 0.959308
11.9192 0.951311
11.9215 0.950683
11.9239 0.919323
11.9262 0.938721
11.9286 0.929143
11.9309 0.900331
11.9332 0.904788
11.9356 0.911523
11.9379 0.9175
11.9403 0.915278
11.9426 0.897597
11.945 0.910627
11.9473 0.908359
11.9497 0.911965
11.952 0.963813
11.9544 0.926697
11.9567 0.925079
11.959 0.929627
11.9614 0.924263
11.9637 0.904705
11.9661 0.920647
11.9684 0.927666
11.9708 0.926797
11.9731 0.920005
11.9755 0.903396
11.9778 0.909313
11.9802 0.912674
11.9825 0.895808
11.9848 0.891108
11.9872 0.937152
11.9895 0.988477
11.9919 0.946664
11.9942 0.929159
11.9966 0.898919
11.9989 0.876692
12.0013 0.877918
12.0036 0.898918
12.006 0.909775
12.0083 0.929282
12.0106 0.950848
12.013 0.943473
12.0153 0.916436
12.0177 0.913719
12.02 0.931393
12.0224 0.91793
12.0247 0.898377
12.0271 0.903832
12.0294 0.930508
12.0318 0.951455
12.0341 0.91263
12.0364 0.930162
12.0388 0.976797
12.0411 0.957367
12.0435 0.958163
12.0458 0.942398
12.0482 0.951365
12.0505 0.974273
12.0529 0.964828
12.0552 0.936777
12.0576 0.911089
12.0599 0.897725
12.0622 0.912266
12.0646 0.922975
12.0669 0.920225
12.0693 0.919602
12.0716 0.901564
12.074 0.937896
12.0763 0.946153
12.0787 0.955666
12.081 0.940536
12.0833 0.944693
12.0857 0.933553
12.088 0.939808
12.0904 0.936032
12.0927 0.956292
12.0951 0.977744
12.0974 0.96874
12.0998 0.936612
12.1021 0.913268
12.1045 0.916576
12.1068 0.93086
12.1091 0.946243
12.1115 0.937829
12.1138 0.93056
12.1162 0.925752
12.1185 0.966135
12.1209 0.932181
12.1232 0.919679
12.1256 0.922715
12.1279 0.982491
12.1303 0.990978
12.1326 0.951834
12.1349 0.937839
12.1373 0.930135
12.1396 0.930285
12.142 0.930012
12.1443 0.926801
12.1467 0.9339
12.149 0.951164
12.1514 0.97547
12.1537 0.984247
12.1561 0.968068
12.1584 0.950596
12.1607 0.967936
12.1631 0.975843
12.1654 0.993731
12.1678 0.965561
12.1701 0.943649
12.1725 0.946389
12.1748 0.996502
12.1772 1.00179
12.1795 0.976511
12.1819 0.963258
12.1842 0.933266
12.1865 0.900384
12.1889 0.898566
12.1912 0.909769
12.1936 0.934641
12.1959 0.968683
12.1983 0.977172
12.2006 1.02053
12.203 0.99671
12.2053 1.01792
12.2077 1.01445
12.21 0.987491
12.2123 0.986415
12.2147 0.991677
12.217 1.02475
12.2194 1.02287
12.2217 0.989365
12.2241 1.00579
12.2264 0.989083
12.2288 0.947493
12.2311 0.938591
12.2335 0.951852
12.2358 0.97464
12.2381 1.02599
12.2405 1.07452
12.2428 1.07703
12.2452 1.06348
12.2475 1.0422
12.2499 1.01484
12.2522 1.0145
12.2546 1.02464
12.2569 1.02061
12.2593 1.01909
12.2616 1.01321
12.2639 1.00067
12.2663 0.992824
12.2686 1.00336
12.271 0.988309
12.2733 1.00714
12.2757 1.02149
12.278 1.01247
12.2804 0.993779
12.2827 0.971308
12.2851 0.962895
12.2874 0.965047
12.2897 0.968112
12.2921 0.996486
12.2944 1.00764
12.2968 0.947319
12.2991 0.952188
12.3015 0.948181
12.3038 0.96053
12.3062 0.970164
12.3085 0.973459
12.3109 0.932904
12.3132 0.983067
12.3155 0.942495
12.3179 0.974722
12.3202 1.0025
12.3226 1.00565
12.3249 0.990044
12.3273 1.00257
12.3296 0.992378
12.332 0.999467
12.3343 0.974907
12.3366 0.936212
12.339 0.94566
12.3413 0.95177
12.3437 0.959614
12.346 0.962704
12.3484 0.97341
12.3507 0.999607
12.3531 0.976181
12.3554 0.975788
12.3578 0.977887
12.3601 0.971842
12.3624 1.01037
12.3648 0.941597
12.3671 0.942577
12.3695 0.959038
12.3718 0.979636
12.3742 1.00435
12.3765 0.990668
12.3789 1.01654
12.3812 1.04349
12.3836 1.06904
12.3859 1.05108
12.3882 1.02229
12.3906 1.03426
12.3929 1.03066
12.3953 1.0211
12.3976 1.03552
12.4 1.00657
12.4023 0.971247
12.4047 0.995251
12.407 0.969854
12.4094 0.893323
12.4117 0.90657
12.414 0.96189
12.4164 0.971846
12.4187 0.987924
12.4211 0.96107
12.4234 0.952633
12.4258 0.983755
12.4281 1.00131
12.4305 1.00644
12.4328 1.00419
12.4352 1.01001
12.4375 0.998384
12.4398 0.972212
12.4422 0.959866
12.4445 0.967661
12.4469 0.972127
12.4492 0.950623
12.4516 0.936348
12.4539 0.962029
12.4563 0.971563
12.4586 0.951541
12.461 0.980968
12.4633 1.01407
12.4656 0.971546
12.468 1.00497
12.4703 0.963626
12.4727 0.922697
12.475 0.912919
12.4774 0.935095
12.4797 0.931806
12.4821 0.942873
12.4844 0.916658
12.4868 0.932678
12.4891 0.953514
12.4914 0.970085
12.4938 0.954214
12.4961 0.957394
12.4985 0.971538
12.5008 0.943834
12.5032 0.924237
12.5055 0.94709
12.5079 0.976558
12.5102 1.00626
12.5126 1.00918
12.5149 0.97035
12.5172 0.916418
12.5196 0.915776
12.5219 0.90033
12.5243 0.903787
12.5266 0.93068
12.529 0.95213
12.5313 0.92354
12.5337 0.932599
12.536 0.97333
12.5384 0.959025
12.5407 0.966346
12.543 0.982356
12.5454 0.975338
12.5477 0.965258
12.5501 0.957584
12.5524 0.957885
12.5548 0.954406
12.5571 0.959042
12.5595 0.979897
12.5618 0.948628
12.5642 0.892084
12.5665 0.887543
12.5688 0.888833
12.5712 0.922043
12.5735 0.963257
12.5759 0.998889
12.5782 0.951129
12.5806 0.94366
12.5829 0.967515
12.5853 0.934669
12.5876 0.91748
12.59 0.929827
12.5923 0.973172
12.5946 0.963533
12.597 1.01685
12.5993 0.961956
12.6017 0.960982
12.604 0.986555
12.6064 0.986518
12.6087 0.954312
12.6111 0.953399
12.6134 0.968242
12.6157 0.946945
12.6181 0.933312
12.6204 0.958077
12.6228 0.976475
12.6251 0.962627
12.6275 0.955226
12.6298 0.96573
12.6322 0.967007
12.6345 0.968207
12.6369 0.948664
12.6392 0.937284
12.6415 0.931805
12.6439 0.946456
12.6462 0.982439
12.6486 0.978164
12.6509 0.95712
12.6533 0.987141
12.6556 0.958509
12.658 0.966752
12.6603 0.92142
12.6627 0.884564
12.665 0.942569
12.6673 0.950169
12.6697 0.948409
12.672 0.960418
12.6744 0.987177
12.6767 0.958953
12.6791 0.949156
12.6814 0.95535
12.6838 0.969803
12.6861 0.969908
12.6885 0.963809
12.6908 0.945676
12.6931 0.926202
12.6955 0.922241
12.6978 0.929729
12.7002 0.972128
12.7025 0.994375
12.7049 0.986546
12.7072 0.989192
12.7096 0.968316
12.7119 0.911834
12.7143 0.89823
12.7166 0.924609
12.7189 0.964178
12.7213 0.930871
12.7236 0.931772
12.726 0.919973
12.7283 0.919067
12.7307 0.923339
12.733 0.910159
12.7354 0.910396
12.7377 0.910041
12.7401 0.924301
12.7424 0.946375
12.7447 0.931783
12.7471 0.941983
12.7494 0.921266
12.7518 0.922474
12.7541 0.949259
12.7565 0.947947
12.7588 0.912358
12.7612 0.902917
12.7635 0.946814
12.7659 0.991393
12.7682 0.991134
12.7705 0.967914
12.7729 0.961028
12.7752 0.963005
12.7776 0.97041
12.7799 0.997412
12.7823 0.982111
12.7846 0.970963
12.787 0.942822
12.7893 0.937885
12.7917 0.949006
12.794 0.954112
12.7963 0.948548
12.7987 0.915578
12.801 0.879652
12.8034 0.930909
12.8057 0.949502
12.8081 0.913938
12.8104 0.920102
12.8128 0.951639
12.8151 0.963905
12.8175 0.955119
12.8198 0.989175
12.8221 1.00838
12.8245 1.00462
12.8268 0.965862
12.8292 0.923007
12.8315 0.898979
12.8339 0.922687
12.8362 0.940535
12.8386 0.933193
12.8409 0.961926
12.8433 0.985931
12.8456 0.976993
12.8479 0.979345
12.8503 0.987617
12.8526 1.00173
12.855 1.01159
12.8573 0.996741
12.8597 0.959827
12.862 0.91233
12.8644 0.943643
12.8667 0.965664
12.869 0.984668
12.8714 0.975306
12.8737 0.941368
12.8761 0.947157
12.8784 0.958255
12.8808 0.968996
12.8831 0.96529
12.8855 0.930475
12.8878 0.916338
12.8902 0.950422
12.8925 0.943979
12.8948 0.921573
12.8972 0.991527
12.8995 1.03204
12.9019 0.990518
12.9042 0.967054
12.9066 0.976738
12.9089 0.985369
12.9113 0.972869
12.9136 0.983743
12.916 1.0218
12.9183 1.01231
12.9206 0.99177
12.923 0.980434
12.9253 0.975956
12.9277 0.990249
12.93 0.985975
12.9324 0.970931
12.9347 0.982166
12.9371 0.983272
12.9394 0.981234
12.9418 1.00065
12.9441 0.99937
12.9464 0.991704
12.9488 0.996915
12.9511 1.00341
12.9535 0.993662
12.9558 1.00894
12.9582 1.04192
12.9605 1.01636
12.9629 0.955273
12.9652 0.956512
12.9676 0.93592
12.9699 0.980003
12.9722 0.987692
12.9746 0.995525
12.9769 1.01036
12.9793 1.00441
12.9816 0.969913
12.984 1.02538
12.9863 0.986179
12.9887 1.00263
12.991 0.996238
12.9934 1.01896
12.9957 1.04535
12.998 1.01313
13.0004 0.981628
13.0027 0.954519
13.0051 0.921535
13.0074 0.976963
13.0098 1.039
13.0121 1.0487
13.0145 1.05742
13.0168 1.01159
13.0192 0.954461
13.0215 0.961448
13.0238 0.954237
13.0262 0.961292
13.0285 1.00723
13.0309 1.01969
13.0332 0.998012
13.0356 1.02214
13.0379 1.05507
13.0403 1.03639
13.0426 1.01934
13.045 1.02784
13.0473 1.04192
13.0496 1.03388
13.052 1.0124
13.0543 1.02992
13.0567 1.04511
13.059 1.03578
13.0614 0.988954
13.0637 0.974044
13.0661 0.941855
13.0684 0.949078
13.0708 0.976677
13.0731 0.992911
13.0754 1.0193
13.0778 1.02514
13.0801 1.02949
13.0825 1.04252
13.0848 1.0402
13.0872 1.05402
13.0895 1.06502
13.0919 0.964455
13.0942 0.935648
13.0966 0.962043
13.0989 0.931157
13.1012 0.973823
13.1036 0.981288
13.1059 1.0234
13.1083 1.01479
13.1106 1.03045
13.113 1.02233
13.1153 1.02544
13.1177 1.026
13.12 1.03514
13.1223 1.04747
13.1247 1.0231
13.127 0.996859
13.1294 1.02115
13.1317 1.04376
13.1341 1.03572
13.1364 1.00918
13.1388 0.975254
13.1411 0.977513
13.1435 1.01739
13.1458 1.04208
13.1481 1.02608
13.1505 1.01435
13.1528 1.01929
13.1552 1.01033
13.1575 1.01512
13.1599 1.04875
13.1622 1.03443
13.1646 1.00179
13.1669 1.02747
13.1693 1.07612
13.1716 1.06998
13.1739 1.03178
13.1763 1.03728
13.1786 1.05484
13.181 1.0651
13.1833 1.06832
13.1857 1.05898
13.188 1.05704
13.1904 1.05845
13.1927 1.05308
13.1951 1.0349
13.1974 1.05773
13.1997 1.0577
13.2021 1.04649
13.2044 1.04289
13.2068 1.06067
13.2091 1.02563
13.2115 1.03531
13.2138 1.03284
13.2162 1.05066
13.2185 1.02033
13.2209 0.972748
13.2232 1.02806
13.2255 1.07842
13.2279 1.05653
13.2302 1.04703
13.2326 1.07487
13.2349 1.08011
13.2373 1.04397
13.2396 1.00994
13.242 1.01617
13.2443 1.0276
13.2467 1.02408
13.249 1.05863
13.2513 1.04512
13.2537 0.99974
13.256 0.990042
13.2584 1.0266
13.2607 1.02769
13.2631 1.02039
13.2654 1.01314
13.2678 1.01855
13.2701 1.02992
13.2725 1.06831
13.2748 1.06182
13.2771 1.05938
13.2795 1.06219
13.2818 1.02825
13.2842 1.02263
13.2865 0.97656
13.2889 0.952806
13.2912 1.03511
13.2936 1.09046
13.2959 1.05989
13.2983 1.05697
13.3006 1.05462
13.3029 1.00233
13.3053 1.00062
13.3076 1.03893
13.31 1.00555
13.3123 0.985935
13.3147 0.955387
13.317 0.939893
13.3194 0.961947
13.3217 0.99122
13.3241 0.973984
13.3264 0.973772
13.3287 0.984896
13.3311 1.0064
13.3334 1.00877
13.3358 1.01505
13.3381 0.995271
13.3405 0.98024
13.3428 0.973818
13.3452 0.971406
13.3475 0.967936
13.3499 0.986162
13.3522 1.02043
13.3545 1.02715
13.3569 0.996124
13.3592 0.973448
13.3616 0.99279
13.3639 0.997797
13.3663 0.955698
13.3686 0.942788
13.371 0.972735
13.3733 0.993943
13.3756 0.989705
13.378 0.957383
13.3803 0.935468
13.3827 0.952315
13.385 1.0165
13.3874 1.06363
13.3897 1.0414
13.3921 1.01156
13.3944 0.968147
13.3968 0.93883
13.3991 0.949991
13.4014 0.942535
13.4038 0.918391
13.4061 0.934559
13.4085 1.01131
13.4108 1.05647
13.4132 1.06401
13.4155 1.06763
13.4179 1.06104
13.4202 1.04394
13.4226 1.003
13.4249 0.994905
13.4272 0.981861
13.4296 0.977673
13.4319 0.965485
13.4343 0.997915
13.4366 1.01032
13.439 1.01684
13.4413 1.03432
13.4437 1.03738
13.446 1.04913
13.4484 1.02346
13.4507 0.993356
13.453 0.977689
13.4554 1.00232
13.4577 1.03769
13.4601 1.06986
13.4624 1.07678
13.4648 1.06769
13.4671 1.05738
13.4695 1.05264
13.4718 1.04097
13.4742 1.04422
13.4765 1.05923
13.4788 1.04359
13.4812 1.03913
13.4835 1.03111
13.4859 1.02889
13.4882 1.04193
13.4906 1.00538
13.4929 0.977947
13.4953 1.03368
13.4976 1.05056
13.5 1.04525
13.5023 1.0403
13.5046 1.03836
13.507 1.03867
13.5093 1.01892
13.5117 0.976795
13.514 0.949148
13.5164 0.956504
13.5187 0.966489
13.5211 0.969802
13.5234 0.974372
13.5258 1.00282
13.5281 1.01096
13.5304 1.05065
13.5328 1.08633
13.5351 1.06735
13.5375 1.08668
13.5398 1.07838
13.5422 1.00685
13.5445 1.01475
13.5469 1.00534
13.5492 1.01525
13.5516 1.02379
13.5539 1.02503
13.5562 1.03934
13.5586 1.06974
13.5609 1.05867
13.5633 1.05138
13.5656 1.05261
13.568 1.03181
13.5703 1.03808
13.5727 1.0249
13.575 1.03103
13.5774 1.03916
13.5797 1.02765
13.582 1.02641
13.5844 1.04262
13.5867 1.03746
13.5891 1.00666
13.5914 0.982383
13.5938 1.03071
13.5961 1.06355
13.5985 1.0558
13.6008 1.01756
13.6032 1.06034
13.6055 1.0574
13.6078 1.06256
13.6102 1.0617
13.6125 1.05269
13.6149 1.06432
13.6172 1.03709
13.6196 1.02106
13.6219 1.05872
13.6243 1.04402
13.6266 1.01264
13.6289 0.989791
13.6313 1.00215
13.6336 1.0316
13.636 1.06411
13.6383 1.04951
13.6407 1.07315
13.643 1.05458
13.6454 1.02494
13.6477 1.03711
13.6501 1.02295
13.6524 1.03104
13.6547 1.04708
13.6571 1.05621
13.6594 1.04086
13.6618 1.03819
13.6641 1.02864
13.6665 1.02547
13.6688 1.0324
13.6712 0.999257
13.6735 1.03705
13.6759 1.05103
13.6782 1.0337
13.6805 1.0315
13.6829 1.05695
13.6852 1.06371
13.6876 0.995488
13.6899 0.938467
13.6923 0.92756
13.6946 0.943958
13.697 1.00077
13.6993 1.01803
13.7017 0.999638
13.704 0.986905
13.7063 0.983228
13.7087 0.968891
13.711 0.969411
13.7134 0.970607
13.7157 0.984092
13.7181 1.01758
13.7204 1.00384
13.7228 0.986658
13.7251 0.993839
13.7275 1.01486
13.7298 1.00559
13.7321 0.978832
13.7345 0.995364
13.7368 0.997734
13.7392 1.00198
13.7415 1.00222
13.7439 0.972978
13.7462 0.955419
13.7486 0.965716
13.7509 0.962477
13.7533 0.973531
13.7556 0.995166
13.7579 1.01405
13.7603 1.01656
13.7626 0.997828
13.765 0.993568
13.7673 0.983879
13.7697 0.969899
13.772 0.974891
13.7744 0.971201
13.7767 0.948475
13.7791 0.940474
13.7814 0.959435
13.7837 0.966475
13.7861 0.963672
13.7884 0.963284
13.7908 1.00734
13.7931 1.07362
13.7955 1.05734
13.7978 1.02723
13.8002 0.950001
13.8025 0.976848
13.8049 0.997883
13.8072 1.0269
13.8095 1.06329
13.8119 1.03906
13.8142 1.01943
13.8166 1.03002
13.8189 1.01124
13.8213 0.992935
13.8236 1.0138
13.826 1.00049
13.8283 1.03508
13.8307 1.01436
13.833 0.973948
13.8353 0.984947
13.8377 1.01607
13.84 0.979272
13.8424 0.997599
13.8447 1.01601
13.8471 1.02377
13.8494 0.990544
13.8518 1.00126
13.8541 0.982252
13.8565 0.94836
13.8588 0.929164
13.8611 0.955927
13.8635 0.915309
13.8658 0.969056
13.8682 1.03125
13.8705 1.04315
13.8729 1.02286
13.8752 0.981047
13.8776 0.946015
13.8799 0.905673
13.8822 0.882217
13.8846 0.907011
13.8869 0.94947
13.8893 1.0079
13.8916 1.00268
13.894 0.999214
13.8963 0.998314
13.8987 0.990938
13.901 1.00868
13.9034 1.04373
13.9057 1.05694
13.908 1.02888
13.9104 1.0114
13.9127 1.02137
13.9151 1.01338
13.9174 1.05313
13.9198 1.04611
13.9221 0.981107
13.9245 0.961491
13.9268 0.966962
13.9292 0.975555
13.9315 0.994891
13.9338 0.961345
13.9362 0.915144
13.9385 0.919129
13.9409 0.944367
13.9432 0.939253
13.9456 0.941808
13.9479 0.970443
13.9503 0.974763
13.9526 0.97057
13.955 1.04541
13.9573 1.07162
13.9596 1.02833
13.962 0.978307
13.9643 0.983956
13.9667 0.974768
13.969 0.982206
13.9714 0.975398
13.9737 1.00898
13.9761 1.01229
13.9784 0.92626
13.9808 0.968732
13.9831 1.00316
13.9854 1.01023
13.9878 1.00652
13.9901 1.02024
13.9925 1.01406
13.9948 1.01822
13.9972 0.989993
13.9995 0.987944
14.0019 1.0637
14.0042 1.06698
14.0066 0.994865
14.0089 1.01427
14.0112 1.08481
14.0136 1.10498
14.0159 1.03333
14.0183 1.00971
14.0206 1.01461
14.023 1.00786
14.0253 1.01781
14.0277 1.05349
14.03 1.04145
14.0324 1.00905
14.0347 0.97508
14.037 0.949391
14.0394 0.953151
14.0417 0.98846
14.0441 1.00629
14.0464 0.99254
14.0488 0.962858
14.0511 0.969323
14.0535 1.01934
14.0558 1.02581
14.0582 1.0172
14.0605 1.01154
14.0628 1.00601
14.0652 1.02947
14.0675 1.04046
14.0699 1.00341
14.0722 1.00775
14.0746 1.02132
14.0769 1.06387
14.0793 1.08015
14.0816 1.04716
14.084 1.00713
14.0863 1.07084
14.0886 1.0787
14.091 0.98217
14.0933 0.988492
14.0957 1.02955
14.098 0.989521
14.1004 0.963552
14.1027 0.962943
14.1051 0.972433
14.1074 1.01574
14.1098 1.04672
14.1121 1.00361
14.1144 0.982512
14.1168 1.01354
14.1191 1.02333
14.1215 1.02577
14.1238 1.02128
14.1262 0.962642
14.1285 0.979937
14.1309 1.02024
14.1332 1.00233
14.1355 0.996901
14.1379 0.990982
14.1402 0.994244
14.1426 1.00108
14.1449 0.985627
14.1473 0.99159
14.1496 1.02231
14.152 1.00364
14.1543 0.998837
14.1567 1.02302
14.159 0.98511
14.1613 0.975589
14.1637 1.02037
14.166 0.995581
14.1684 0.971614
14.1707 1.02534
14.1731 1.03324
14.1754 1.0016
14.1778 0.918472
14.1801 0.957161
14.1825 1.01035
14.1848 1.01945
14.1871 1.04027
14.1895 1.01577
14.1918 1.03855
14.1942 1.01022
14.1965 0.977622
14.1989 0.994023
14.2012 0.985515
14.2036 0.981994
14.2059 0.970787
14.2083 0.950443
14.2106 1.0025
14.2129 1.02837
14.2153 1.0749
14.2176 1.09217
14.22 1.06629
14.2223 1.05554
14.2247 1.04029
14.227 0.998449
14.2294 0.985003
14.2317 1.01672
14.2341 0.970685
14.2364 1.00372
14.2387 1.01206
14.2411 0.979118
14.2434 1.00334
14.2458 1.01054
14.2481 1.05737
14.2505 1.10849
14.2528 1.06785
14.2552 1.03441
14.2575 1.00705
14.2599 1.05626
14.2622 1.08559
14.2645 1.07019
14.2669 1.04933
14.2692 1.09485
14.2716 1.09311
14.2739 1.03347
14.2763 0.976039
14.2786 0.985023
14.281 1.03744
14.2833 1.08616
14.2857 1.09647
14.288 1.08272
14.2903 1.07383
14.2927 1.05547
14.295 1.04096
14.2974 1.01262
14.2997 1.02437
14.3021 1.06461
14.3044 1.07996
14.3068 1.06364
14.3091 1.02148
14.3115 0.999306
14.3138 1.01635
14.3161 1.08255
14.3185 1.02669
14.3208 1.0248
14.3232 1.04458
14.3255 1.05496
14.3279 1.03631
14.3302 1.01593
14.3326 0.992142
14.3349 1.00988
14.3373 1.04777
14.3396 1.04486
14.3419 0.990502
14.3443 0.975977
14.3466 1.02652
14.349 1.0439
14.3513 1.05719
14.3537 1.05383
14.356 1.11367
14.3584 1.08248
14.3607 1.03976
14.3631 1.10861
14.3654 1.0957
14.3677 1.07311
14.3701 1.10698
14.3724 1.07948
14.3748 1.08514
14.3771 1.0888
14.3795 1.04545
14.3818 1.01568
14.3842 0.981057
14.3865 0.997564
14.3888 1.0507
14.3912 1.07379
14.3935 1.03239
14.3959 1.04524
14.3982 1.03383
14.4006 1.0045
14.4029 1.01853
14.4053 1.02334
14.4076 1.04008
14.41 1.05126
14.4123 0.994446
14.4146 1.02806
14.417 1.05739
14.4193 1.02959
14.4217 1.01944
14.424 1.03178
14.4264 0.993419
14.4287 0.939906
14.4311 0.938566
14.4334 1.00678
14.4358 0.994132
14.4381 0.983008
14.4404 0.946139
14.4428 0.948189
14.4451 0.974964
14.4475 1.03765
14.4498 1.02271
14.4522 1.00761
14.4545 0.909939
14.4569 0.959296
14.4592 1.01288
14.4616 1.04397
14.4639 1.0358
14.4662 0.997829
14.4686 1.0039
14.4709 1.03465
14.4733 1.00498
14.4756 0.988224
14.478 1.04036
14.4803 1.03618
14.4827 1.0144
14.485 1.03456
14.4874 1.02703
14.4897 0.996779
14.492 0.987079
14.4944 0.963843
14.4967 0.95289
14.4991 0.978982
14.5014 0.977451
14.5038 0.978868
14.5061 0.975281
14.5085 0.964623
14.5108 1.02699
14.5132 0.994551
14.5155 0.946084
14.5178 0.939804
14.5202 0.971643
14.5225 0.996579
14.5249 0.963581
14.5272 0.965858
14.5296 0.975606
14.5319 0.97125
14.5343 0.94224
14.5366 0.933678
14.539 0.967173
14.5413 0.987498
14.5436 0.978828
14.546 0.971223
14.5483 0.956188
14.5507 0.902184
14.553 0.936354
14.5554 1.00115
14.5577 0.977421
14.5601 0.985393
14.5624 1.02816
14.5648 1.01895
14.5671 1.02229
14.5694 1.01119
14.5718 0.989242
14.5741 0.987147
14.5765 1.01421
14.5788 0.995453
14.5812 0.9679
14.5835 0.950277
14.5859 0.948517
14.5882 0.947959
14.5906 0.956201
14.5929 0.926879
14.5952 0.97235
14.5976 1.02517
14.5999 1.03324
14.6023 0.99574
14.6046 0.952781
14.607 0.939815
14.6093 0.936505
14.6117 0.967971
14.614 0.973988
14.6164 0.975654
14.6187 0.94999
14.621 0.911432
14.6234 0.890672
14.6257 0.906638
14.6281 0.910789
14.6304 0.911491
14.6328 0.926634
14.6351 0.900902
14.6375 0.917689
14.6398 1.02173
14.6421 0.990878
14.6445 0.935785
14.6468 0.98157
14.6492 0.967418
14.6515 0.999364
14.6539 0.957148
14.6562 0.983432
14.6586 0.991334
14.6609 1.00048
14.6633 0.957613
14.6656 0.952852
14.6679 0.972351
14.6703 0.965884
14.6726 0.940546
14.675 0.953051
14.6773 0.942685
14.6797 0.931317
14.682 0.96024
14.6844 0.969473
14.6867 1.01484
14.6891 1.03707
14.6914 0.952271
14.6937 0.897466
14.6961 0.914678
14.6984 0.957124
14.7008 0.967928
14.7031 0.960498
14.7055 0.918888
14.7078 0.937302
14.7102 0.957648
14.7125 0.995487
14.7149 1.01226
14.7172 1.03174
14.7195 1.04515
14.7219 1.01892
14.7242 0.984356
14.7266 0.990006
14.7289 1.01964
14.7313 1.05497
14.7336 1.03414
14.736 0.998279
14.7383 0.985928
14.7407 0.983467
14.743 1.02601
14.7453 1.00882
14.7477 0.988172
14.75 0.92516
14.7524 0.939505
14.7547 0.968589
14.7571 0.990527
14.7594 0.904187
14.7618 0.900606
14.7641 0.917281
14.7665 0.940701
14.7688 0.931269
14.7711 0.950142
14.7735 0.957143
14.7758 0.959982
14.7782 0.957162
14.7805 0.98808
14.7829 0.972823
14.7852 0.987187
14.7876 0.997661
14.7899 1.00347
14.7923 0.985212
14.7946 0.9579
14.7969 0.936057
14.7993 0.944166
14.8016 0.936728
14.804 0.934451
14.8063 0.944033
14.8087 0.948225
14.811 0.970656
14.8134 1.00465
14.8157 0.993835
14.8181 0.905136
14.8204 0.931243
14.8227 0.959175
14.8251 0.945972
14.8274 0.940165
14.8298 0.962888
14.8321 0.955217
14.8345 0.955225
14.8368 0.960855
14.8392 0.98014
14.8415 0.956177
14.8439 0.987949
14.8462 0.981288
14.8485 0.956852
14.8509 0.912615
14.8532 0.904299
14.8556 0.907747
14.8579 0.920248
14.8603 0.986701
14.8626 1.01561
14.865 0.998123
14.8673 1.00127
14.8697 1.00908
14.872 0.973475
14.8743 0.947703
14.8767 0.956043
14.879 0.955462
14.8814 0.951116
14.8837 0.953335
14.8861 0.985762
14.8884 0.957161
14.8908 0.988146
14.8931 0.986097
14.8954 0.965616
14.8978 0.963721
14.9001 0.976588
14.9025 0.999611
14.9048 1.01391
14.9072 1.00671
14.9095 0.99923
14.9119 0.985296
14.9142 0.955443
14.9166 0.960019
14.9189 0.950572
14.9212 0.932016
14.9236 0.95342
14.9259 0.98995
14.9283 0.998657
14.9306 0.967016
14.933 0.903434
14.9353 0.904575
14.9377 1.00067
14.94 0.998281
14.9424 0.978477
14.9447 0.969847
14.947 0.967969
14.9494 0.974103
14.9517 0.952003
14.9541 0.966587
14.9564 1.00836
14.9588 0.986059
14.9611 0.932455
14.9635 0.908228
14.9658 0.943764
14.9682 0.950142
14.9705 0.968289
14.9728 0.963373
14.9752 0.984894
14.9775 1.02424
14.9799 1.03183
14.9822 1.02516
14.9846 1.0174
14.9869 1.01006
14.9893 0.987673
14.9916 1.04978
14.994 1.09443
14.9963 1.00006
14.9986 0.998048
