[DEFAULT]

version = diffpy.pdfgetx-2.2.1

# input and output specifications
dataformat = QA
inputfile = bf12_acc_r01.xyd
backgroundfiles = emptycap.xyd
outputtype = sq

# PDF calculation setup
mode = xray
composition = AlOOH
bgscales = 0.5
rpoly = 1.13
qmaxinst = 20.396
qmin = 0.406
qmax = 15
rmin = 0
rmax = 300
rstep = 0.01

# End of config --------------------------------------------------------------

#### start data
#S 1
#L Q(Ã…$^{-1}$)  S(a.u.)
0.408095 1.43416
0.41044 1.4274
0.412785 1.42063
0.415131 1.41497
0.417476 1.40967
0.419821 1.41121
0.422167 1.4065
0.424512 1.40032
0.426857 1.39465
0.429203 1.3869
0.431548 1.38734
0.433894 1.38569
0.436239 1.38277
0.438584 1.37935
0.44093 1.37539
0.443275 1.36685
0.44562 1.36303
0.447966 1.3623
0.450311 1.36126
0.452657 1.3539
0.455002 1.34913
0.457347 1.34787
0.459693 1.34587
0.462038 1.34112
0.464383 1.33769
0.466729 1.33496
0.469074 1.33324
0.47142 1.33099
0.473765 1.32718
0.47611 1.32257
0.478456 1.32287
0.480801 1.321
0.483146 1.31526
0.485492 1.30688
0.487837 1.30442
0.490182 1.30299
0.492528 1.30182
0.494873 1.2999
0.497219 1.29737
0.499564 1.29929
0.501909 1.29416
0.504255 1.28825
0.5066 1.28475
0.508945 1.2853
0.511291 1.28749
0.513636 1.28387
0.515982 1.28027
0.518327 1.27655
0.520672 1.27226
0.523018 1.27346
0.525363 1.27135
0.527708 1.266
0.530054 1.26198
0.532399 1.26335
0.534745 1.25996
0.53709 1.25514
0.539435 1.2511
0.541781 1.24855
0.544126 1.24783
0.546471 1.25059
0.548817 1.24912
0.551162 1.24531
0.553507 1.24177
0.555853 1.24099
0.558198 1.23814
0.560544 1.23634
0.562889 1.23432
0.565234 1.23354
0.56758 1.23582
0.569925 1.22768
0.57227 1.22471
0.574616 1.22354
0.576961 1.22182
0.579307 1.21806
0.581652 1.22208
0.583997 1.22035
0.586343 1.21687
0.588688 1.21359
0.591033 1.2113
0.593379 1.21047
0.595724 1.20999
0.59807 1.20973
0.600415 1.20899
0.60276 1.20663
0.605106 1.2051
0.607451 1.20253
0.609796 1.2002
0.612142 1.19903
0.614487 1.1996
0.616832 1.19922
0.619178 1.19483
0.621523 1.19117
0.623869 1.18873
0.626214 1.18337
0.628559 1.18612
0.630905 1.18767
0.63325 1.18564
0.635595 1.18121
0.637941 1.17999
0.640286 1.1764
0.642632 1.17708
0.644977 1.17732
0.647322 1.17457
0.649668 1.16965
0.652013 1.16833
0.654358 1.16834
0.656704 1.16816
0.659049 1.16648
0.661395 1.16218
0.66374 1.16282
0.666085 1.16376
0.668431 1.1623
0.670776 1.15852
0.673121 1.15784
0.675467 1.15788
0.677812 1.15381
0.680158 1.15121
0.682503 1.15276
0.684848 1.15258
0.687194 1.15231
0.689539 1.14851
0.691884 1.1453
0.69423 1.14619
0.696575 1.1514
0.69892 1.14659
0.701266 1.1435
0.703611 1.14273
0.705957 1.14259
0.708302 1.13852
0.710647 1.13189
0.712993 1.13159
0.715338 1.13302
0.717683 1.13163
0.720029 1.13116
0.722374 1.12957
0.72472 1.12774
0.727065 1.12665
0.72941 1.12672
0.731756 1.12588
0.734101 1.12356
0.736446 1.12206
0.738792 1.12155
0.741137 1.12144
0.743483 1.11946
0.745828 1.11829
0.748173 1.11768
0.750519 1.11667
0.752864 1.11482
0.755209 1.1165
0.757555 1.11565
0.7599 1.11527
0.762245 1.11452
0.764591 1.11187
0.766936 1.10945
0.769282 1.11039
0.771627 1.11031
0.773972 1.10757
0.776318 1.10259
0.778663 1.10566
0.781008 1.10635
0.783354 1.10433
0.785699 1.10125
0.788045 1.09956
0.79039 1.09986
0.792735 1.09668
0.795081 1.09561
0.797426 1.09618
0.799771 1.09539
0.802117 1.09715
0.804462 1.09688
0.806808 1.0951
0.809153 1.09204
0.811498 1.08808
0.813844 1.08752
0.816189 1.08592
0.818534 1.08371
0.82088 1.08183
0.823225 1.08151
0.82557 1.08094
0.827916 1.07967
0.830261 1.07983
0.832607 1.08084
0.834952 1.08009
0.837297 1.07818
0.839643 1.07447
0.841988 1.073
0.844333 1.07425
0.846679 1.07558
0.849024 1.07186
0.85137 1.07146
0.853715 1.07203
0.85606 1.07293
0.858406 1.07519
0.860751 1.07261
0.863096 1.07156
0.865442 1.06905
0.867787 1.06533
0.870133 1.06434
0.872478 1.06167
0.874823 1.06158
0.877169 1.06088
0.879514 1.05827
0.881859 1.05498
0.884205 1.0568
0.88655 1.05575
0.888896 1.05469
0.891241 1.05603
0.893586 1.06123
0.895932 1.05791
0.898277 1.05489
0.900622 1.05383
0.902968 1.05369
0.905313 1.04923
0.907658 1.05441
0.910004 1.05517
0.912349 1.0534
0.914695 1.05138
0.91704 1.05052
0.919385 1.04694
0.921731 1.04484
0.924076 1.04349
0.926421 1.04299
0.928767 1.04632
0.931112 1.04596
0.933458 1.04355
0.935803 1.04118
0.938148 1.03991
0.940494 1.03812
0.942839 1.03976
0.945184 1.04168
0.94753 1.03955
0.949875 1.03295
0.952221 1.03299
0.954566 1.0326
0.956911 1.03325
0.959257 1.03433
0.961602 1.0348
0.963947 1.0331
0.966293 1.03168
0.968638 1.02932
0.970983 1.02694
0.973329 1.02541
0.975674 1.02426
0.97802 1.02243
0.980365 1.02242
0.98271 1.02261
0.985056 1.0211
0.987401 1.01793
0.989746 1.01919
0.992092 1.02149
0.994437 1.02093
0.996783 1.01575
0.999128 1.01534
1.00147 1.01776
1.00382 1.01845
1.00616 1.01753
1.00851 1.01628
1.01085 1.01612
1.0132 1.02018
1.01555 1.0207
1.01789 1.01736
1.02024 1.01277
1.02258 1.01519
1.02493 1.01786
1.02727 1.01529
1.02962 1.01113
1.03196 1.01087
1.03431 1.01108
1.03665 1.01176
1.039 1.00618
1.04134 1.00077
1.04369 1.00444
1.04604 1.00575
1.04838 1.00609
1.05073 1.00349
1.05307 0.999146
1.05542 0.995908
1.05776 0.999958
1.06011 1.00192
1.06245 1.00157
1.0648 1.00105
1.06714 1.00261
1.06949 0.995386
1.07183 0.995385
1.07418 0.997074
1.07653 0.997601
1.07887 0.995701
1.08122 0.997545
1.08356 0.997045
1.08591 0.994517
1.08825 0.99302
1.0906 0.996635
1.09294 0.996398
1.09529 0.994764
1.09763 0.989837
1.09998 0.98637
1.10232 0.992491
1.10467 0.991504
1.10701 0.993017
1.10936 0.995472
1.11171 0.995441
1.11405 0.988443
1.1164 0.983599
1.11874 0.983593
1.12109 0.982811
1.12343 0.982148
1.12578 0.987137
1.12812 0.984482
1.13047 0.982593
1.13281 0.984786
1.13516 0.988192
1.1375 0.984712
1.13985 0.986087
1.1422 0.985386
1.14454 0.982748
1.14689 0.980015
1.14923 0.980699
1.15158 0.979175
1.15392 0.976228
1.15627 0.977619
1.15861 0.98181
1.16096 0.979485
1.1633 0.977399
1.16565 0.976753
1.16799 0.97649
1.17034 0.975888
1.17269 0.974616
1.17503 0.97737
1.17738 0.97753
1.17972 0.979618
1.18207 0.981218
1.18441 0.970447
1.18676 0.974107
1.1891 0.973315
1.19145 0.973843
1.19379 0.97578
1.19614 0.970124
1.19848 0.971215
1.20083 0.974069
1.20318 0.974912
1.20552 0.971991
1.20787 0.966357
1.21021 0.971954
1.21256 0.975395
1.2149 0.976685
1.21725 0.976253
1.21959 0.974066
1.22194 0.972963
1.22428 0.971018
1.22663 0.971139
1.22897 0.973265
1.23132 0.971255
1.23366 0.971008
1.23601 0.968985
1.23836 0.966937
1.2407 0.966278
1.24305 0.967182
1.24539 0.963648
1.24774 0.966158
1.25008 0.96929
1.25243 0.968793
1.25477 0.96544
1.25712 0.968755
1.25946 0.970011
1.26181 0.968924
1.26415 0.966728
1.2665 0.96647
1.26885 0.964372
1.27119 0.963018
1.27354 0.963527
1.27588 0.965703
1.27823 0.966367
1.28057 0.968068
1.28292 0.967298
1.28526 0.966192
1.28761 0.966311
1.28995 0.965681
1.2923 0.968874
1.29464 0.966969
1.29699 0.962658
1.29934 0.959755
1.30168 0.960948
1.30403 0.959019
1.30637 0.960796
1.30872 0.962083
1.31106 0.960148
1.31341 0.962716
1.31575 0.962563
1.3181 0.960308
1.32044 0.95842
1.32279 0.958289
1.32513 0.956116
1.32748 0.955852
1.32983 0.960591
1.33217 0.964466
1.33452 0.962103
1.33686 0.956031
1.33921 0.95991
1.34155 0.956926
1.3439 0.952897
1.34624 0.954227
1.34859 0.950921
1.35093 0.946194
1.35328 0.945725
1.35562 0.94688
1.35797 0.946621
1.36032 0.948622
1.36266 0.951046
1.36501 0.948598
1.36735 0.945174
1.3697 0.945544
1.37204 0.948118
1.37439 0.948648
1.37673 0.945485
1.37908 0.940518
1.38142 0.937066
1.38377 0.941268
1.38611 0.943051
1.38846 0.945215
1.3908 0.94678
1.39315 0.945962
1.3955 0.94165
1.39784 0.938434
1.40019 0.935807
1.40253 0.934017
1.40488 0.933352
1.40722 0.933343
1.40957 0.936027
1.41191 0.931145
1.41426 0.925005
1.4166 0.926658
1.41895 0.928571
1.42129 0.92898
1.42364 0.927483
1.42599 0.92543
1.42833 0.924322
1.43068 0.921894
1.43302 0.922082
1.43537 0.91894
1.43771 0.91297
1.44006 0.907954
1.4424 0.916234
1.44475 0.921013
1.44709 0.928603
1.44944 0.932851
1.45178 0.925685
1.45413 0.921547
1.45648 0.918132
1.45882 0.915457
1.46117 0.91433
1.46351 0.915304
1.46586 0.914168
1.4682 0.914676
1.47055 0.911269
1.47289 0.907131
1.47524 0.908012
1.47758 0.908736
1.47993 0.9082
1.48227 0.907853
1.48462 0.906492
1.48697 0.902249
1.48931 0.898127
1.49166 0.893162
1.494 0.895279
1.49635 0.899683
1.49869 0.897072
1.50104 0.894911
1.50338 0.893095
1.50573 0.893904
1.50807 0.897743
1.51042 0.902859
1.51276 0.891977
1.51511 0.886032
1.51745 0.88649
1.5198 0.890696
1.52215 0.893836
1.52449 0.893527
1.52684 0.889419
1.52918 0.887891
1.53153 0.891321
1.53387 0.899038
1.53622 0.895509
1.53856 0.894988
1.54091 0.894953
1.54325 0.8942
1.5456 0.891953
1.54794 0.884158
1.55029 0.884024
1.55264 0.885147
1.55498 0.885298
1.55733 0.884387
1.55967 0.882968
1.56202 0.882513
1.56436 0.879776
1.56671 0.877868
1.56905 0.882749
1.5714 0.88459
1.57374 0.880143
1.57609 0.877798
1.57843 0.878271
1.58078 0.878258
1.58313 0.883324
1.58547 0.882212
1.58782 0.878971
1.59016 0.874726
1.59251 0.869661
1.59485 0.878116
1.5972 0.879916
1.59954 0.877253
1.60189 0.87319
1.60423 0.871367
1.60658 0.869909
1.60892 0.87288
1.61127 0.874947
1.61362 0.874804
1.61596 0.873737
1.61831 0.874851
1.62065 0.87659
1.623 0.876235
1.62534 0.87302
1.62769 0.867771
1.63003 0.868589
1.63238 0.874064
1.63472 0.877639
1.63707 0.876363
1.63941 0.869813
1.64176 0.862327
1.6441 0.866792
1.64645 0.868146
1.6488 0.863579
1.65114 0.858723
1.65349 0.865048
1.65583 0.866229
1.65818 0.865533
1.66052 0.8647
1.66287 0.864529
1.66521 0.865197
1.66756 0.862288
1.6699 0.862085
1.67225 0.864206
1.67459 0.863823
1.67694 0.864543
1.67929 0.866024
1.68163 0.868052
1.68398 0.867029
1.68632 0.857704
1.68867 0.86198
1.69101 0.867349
1.69336 0.864533
1.6957 0.856317
1.69805 0.854117
1.70039 0.860878
1.70274 0.863922
1.70508 0.86575
1.70743 0.867397
1.70978 0.868835
1.71212 0.866915
1.71447 0.867029
1.71681 0.864603
1.71916 0.859442
1.7215 0.854796
1.72385 0.861488
1.72619 0.85899
1.72854 0.855678
1.73088 0.856492
1.73323 0.863492
1.73557 0.859665
1.73792 0.855668
1.74027 0.852399
1.74261 0.850548
1.74496 0.850542
1.7473 0.849007
1.74965 0.850326
1.75199 0.854106
1.75434 0.858888
1.75668 0.862223
1.75903 0.857971
1.76137 0.856963
1.76372 0.85735
1.76606 0.857846
1.76841 0.857434
1.77075 0.853232
1.7731 0.851439
1.77545 0.852477
1.77779 0.852913
1.78014 0.847202
1.78248 0.85606
1.78483 0.861014
1.78717 0.860977
1.78952 0.857765
1.79186 0.855481
1.79421 0.858862
1.79655 0.85984
1.7989 0.855197
1.80124 0.849661
1.80359 0.853175
1.80594 0.857076
1.80828 0.858849
1.81063 0.857705
1.81297 0.854488
1.81532 0.851212
1.81766 0.8477
1.82001 0.855972
1.82235 0.860363
1.8247 0.859417
1.82704 0.8605
1.82939 0.847348
1.83173 0.846453
1.83408 0.851643
1.83643 0.857205
1.83877 0.857675
1.84112 0.85545
1.84346 0.850715
1.84581 0.848828
1.84815 0.850904
1.8505 0.854838
1.85284 0.849004
1.85519 0.844345
1.85753 0.848311
1.85988 0.855002
1.86222 0.850512
1.86457 0.840657
1.86692 0.841663
1.86926 0.844703
1.87161 0.846698
1.87395 0.848161
1.8763 0.854465
1.87864 0.857704
1.88099 0.855389
1.88333 0.852695
1.88568 0.858277
1.88802 0.852746
1.89037 0.851269
1.89271 0.851958
1.89506 0.855674
1.8974 0.864144
1.89975 0.867607
1.9021 0.858642
1.90444 0.857069
1.90679 0.861763
1.90913 0.861153
1.91148 0.869251
1.91382 0.862269
1.91617 0.856454
1.91851 0.856839
1.92086 0.862438
1.9232 0.871126
1.92555 0.866943
1.92789 0.861131
1.93024 0.85965
1.93259 0.865014
1.93493 0.866469
1.93728 0.864644
1.93962 0.865888
1.94197 0.87017
1.94431 0.874036
1.94666 0.872026
1.949 0.875228
1.95135 0.878812
1.95369 0.877243
1.95604 0.866845
1.95838 0.872106
1.96073 0.881835
1.96308 0.88389
1.96542 0.878197
1.96777 0.870701
1.97011 0.870419
1.97246 0.872567
1.9748 0.876831
1.97715 0.880522
1.97949 0.879568
1.98184 0.86688
1.98418 0.876107
1.98653 0.883632
1.98887 0.880775
1.99122 0.868039
1.99357 0.876946
1.99591 0.887208
1.99826 0.884333
2.0006 0.878971
2.00295 0.88704
2.00529 0.881014
2.00764 0.882594
2.00998 0.890515
2.01233 0.895436
2.01467 0.88884
2.01702 0.894868
2.01936 0.896433
2.02171 0.893964
2.02405 0.889265
2.0264 0.885048
2.02875 0.885941
2.03109 0.894622
2.03344 0.893202
2.03578 0.890599
2.03813 0.899302
2.04047 0.896195
2.04282 0.898672
2.04516 0.902387
2.04751 0.9015
2.04985 0.893992
2.0522 0.90498
2.05454 0.898052
2.05689 0.895004
2.05924 0.895808
2.06158 0.896015
2.06393 0.900456
2.06627 0.909486
2.06862 0.916242
2.07096 0.915848
2.07331 0.907807
2.07565 0.911248
2.078 0.912641
2.08034 0.905858
2.08269 0.899525
2.08503 0.902169
2.08738 0.904947
2.08973 0.903634
2.09207 0.909751
2.09442 0.913581
2.09676 0.907878
2.09911 0.916453
2.10145 0.908301
2.1038 0.909535
2.10614 0.916231
2.10849 0.920189
2.11083 0.919888
2.11318 0.928926
2.11552 0.930863
2.11787 0.927451
2.12022 0.922708
2.12256 0.916462
2.12491 0.920791
2.12725 0.928577
2.1296 0.935526
2.13194 0.939532
2.13429 0.94432
2.13663 0.946684
2.13898 0.949442
2.14132 0.94965
2.14367 0.945062
2.14601 0.937399
2.14836 0.937466
2.1507 0.941835
2.15305 0.944974
2.1554 0.943338
2.15774 0.939209
2.16009 0.946157
2.16243 0.952565
2.16478 0.954298
2.16712 0.95251
2.16947 0.959373
2.17181 0.963645
2.17416 0.968267
2.1765 0.969033
2.17885 0.963854
2.18119 0.956366
2.18354 0.95927
2.18589 0.962957
2.18823 0.969766
2.19058 0.977815
2.19292 0.974634
2.19527 0.973627
2.19761 0.974405
2.19996 0.974356
2.2023 0.973552
2.20465 0.977268
2.20699 0.993298
2.20934 0.99124
2.21168 0.987873
2.21403 0.992869
2.21638 1.00063
2.21872 0.994968
2.22107 0.9908
2.22341 0.985974
2.22576 0.979826
2.2281 0.974846
2.23045 0.981278
2.23279 0.986506
2.23514 0.985016
2.23748 0.981614
2.23983 0.994244
2.24217 0.998705
2.24452 0.996653
2.24687 0.997705
2.24921 1.00228
2.25156 1.00008
2.2539 0.996687
2.25625 0.999109
2.25859 0.997451
2.26094 0.991141
2.26328 0.989208
2.26563 0.993601
2.26797 0.993823
2.27032 0.997389
2.27266 1.00257
2.27501 0.999584
2.27735 1.00116
2.2797 1.00003
2.28205 0.994091
2.28439 0.988215
2.28674 0.992467
2.28908 1.00175
2.29143 1.00794
2.29377 1.00738
2.29612 0.998916
2.29846 0.984089
2.30081 0.982108
2.30315 0.990935
2.3055 0.996177
2.30784 0.99374
2.31019 0.986643
2.31254 0.992035
2.31488 0.993418
2.31723 0.995571
2.31957 0.99618
2.32192 0.990349
2.32426 0.988843
2.32661 0.982736
2.32895 0.98697
2.3313 0.994698
2.33364 0.990798
2.33599 0.982218
2.33833 0.990475
2.34068 0.993797
2.34303 0.992582
2.34537 0.994583
2.34772 0.994419
2.35006 0.990242
2.35241 0.988476
2.35475 0.992611
2.3571 1.00222
2.35944 0.997145
2.36179 0.999837
2.36413 1.00066
2.36648 0.996091
2.36882 0.986911
2.37117 0.987996
2.37352 0.991172
2.37586 0.992758
2.37821 0.994543
2.38055 0.998576
2.3829 1.00156
2.38524 1.00109
2.38759 0.997968
2.38993 0.992998
2.39228 0.988567
2.39462 0.99351
2.39697 0.992456
2.39931 0.996907
2.40166 0.999743
2.404 0.995913
2.40635 0.998354
2.4087 1.002
2.41104 1.00567
2.41339 1.00759
2.41573 1.00723
2.41808 1.00773
2.42042 1.00907
2.42277 1.01874
2.42511 1.02621
2.42746 1.02422
2.4298 1.01765
2.43215 1.0142
2.43449 1.01702
2.43684 1.02323
2.43919 1.02801
2.44153 1.02349
2.44388 1.03714
2.44622 1.0425
2.44857 1.0446
2.45091 1.04757
2.45326 1.05049
2.4556 1.04555
2.45795 1.05033
2.46029 1.05595
2.46264 1.05849
2.46498 1.0629
2.46733 1.06462
2.46968 1.06573
2.47202 1.07323
2.47437 1.08305
2.47671 1.07781
2.47906 1.0823
2.4814 1.0874
2.48375 1.09013
2.48609 1.09408
2.48844 1.10911
2.49078 1.10868
2.49313 1.11354
2.49547 1.12197
2.49782 1.12884
2.50017 1.12673
2.50251 1.13237
2.50486 1.13222
2.5072 1.14147
2.50955 1.15454
2.51189 1.15309
2.51424 1.16045
2.51658 1.17597
2.51893 1.18422
2.52127 1.18319
2.52362 1.17935
2.52596 1.18816
2.52831 1.19856
2.53066 1.20276
2.533 1.20844
2.53535 1.22551
2.53769 1.21015
2.54004 1.21449
2.54238 1.22296
2.54473 1.23507
2.54707 1.25144
2.54942 1.23804
2.55176 1.23748
2.55411 1.24515
2.55645 1.25669
2.5588 1.26652
2.56114 1.26337
2.56349 1.27724
2.56584 1.28746
2.56818 1.29036
2.57053 1.28834
2.57287 1.29189
2.57522 1.29565
2.57756 1.29204
2.57991 1.28659
2.58225 1.28602
2.5846 1.29183
2.58694 1.29624
2.58929 1.29351
2.59163 1.29119
2.59398 1.29597
2.59633 1.30631
2.59867 1.28989
2.60102 1.28618
2.60336 1.29167
2.60571 1.2974
2.60805 1.29333
2.6104 1.28608
2.61274 1.28299
2.61509 1.28153
2.61743 1.27999
2.61978 1.27985
2.62212 1.27703
2.62447 1.27855
2.62682 1.27919
2.62916 1.27283
2.63151 1.2527
2.63385 1.23165
2.6362 1.2226
2.63854 1.22138
2.64089 1.22452
2.64323 1.23009
2.64558 1.21324
2.64792 1.20197
2.65027 1.19781
2.65261 1.1974
2.65496 1.19303
2.65731 1.18814
2.65965 1.17662
2.662 1.16796
2.66434 1.16514
2.66669 1.16548
2.66903 1.15077
2.67138 1.13969
2.67372 1.13009
2.67607 1.12243
2.67841 1.11873
2.68076 1.12312
2.6831 1.1212
2.68545 1.1172
2.68779 1.11339
2.69014 1.11048
2.69249 1.10183
2.69483 1.10122
2.69718 1.10448
2.69952 1.1095
2.70187 1.11422
2.70421 1.11283
2.70656 1.10842
2.7089 1.11311
2.71125 1.11958
2.71359 1.11854
2.71594 1.11956
2.71828 1.12582
2.72063 1.13439
2.72298 1.1431
2.72532 1.14909
2.72767 1.14603
2.73001 1.15665
2.73236 1.17424
2.7347 1.18761
2.73705 1.19223
2.73939 1.20515
2.74174 1.22268
2.74408 1.2258
2.74643 1.22712
2.74877 1.23229
2.75112 1.22311
2.75347 1.20117
2.75581 1.18099
2.75816 1.16179
2.7605 1.13937
2.76285 1.10542
2.76519 1.06815
2.76754 1.03992
2.76988 1.01096
2.77223 0.981403
2.77457 0.965597
2.77692 0.958074
2.77926 0.942713
2.78161 0.924406
2.78396 0.908525
2.7863 0.900359
2.78865 0.895614
2.79099 0.891255
2.79334 0.884498
2.79568 0.879212
2.79803 0.883276
2.80037 0.875716
2.80272 0.874689
2.80506 0.87203
2.80741 0.864671
2.80975 0.853888
2.8121 0.858603
2.81444 0.854955
2.81679 0.847506
2.81914 0.844016
2.82148 0.850838
2.82383 0.849213
2.82617 0.841278
2.82852 0.835983
2.83086 0.832498
2.83321 0.827901
2.83555 0.826216
2.8379 0.823649
2.84024 0.822205
2.84259 0.820389
2.84493 0.817572
2.84728 0.820482
2.84963 0.817618
2.85197 0.814888
2.85432 0.810212
2.85666 0.801664
2.85901 0.791572
2.86135 0.796324
2.8637 0.798909
2.86604 0.797266
2.86839 0.792011
2.87073 0.785553
2.87308 0.787203
2.87542 0.792568
2.87777 0.78941
2.88012 0.777211
2.88246 0.775655
2.88481 0.782869
2.88715 0.783887
2.8895 0.783887
2.89184 0.784821
2.89419 0.783737
2.89653 0.773261
2.89888 0.770373
2.90122 0.777405
2.90357 0.787198
2.90591 0.784745
2.90826 0.78143
2.91061 0.782949
2.91295 0.780346
2.9153 0.772363
2.91764 0.763624
2.91999 0.768416
2.92233 0.768264
2.92468 0.767722
2.92702 0.768447
2.92937 0.770855
2.93171 0.777074
2.93406 0.783363
2.9364 0.781427
2.93875 0.776382
2.94109 0.776275
2.94344 0.776506
2.94579 0.770771
2.94813 0.769058
2.95048 0.76733
2.95282 0.761858
2.95517 0.76538
2.95751 0.774582
2.95986 0.766469
2.9622 0.757184
2.96455 0.761722
2.96689 0.77183
2.96924 0.768189
2.97158 0.766234
2.97393 0.76544
2.97628 0.764404
2.97862 0.763591
2.98097 0.767127
2.98331 0.76104
2.98566 0.760863
2.988 0.767498
2.99035 0.75695
2.99269 0.759735
2.99504 0.758565
2.99738 0.760249
2.99973 0.764804
3.00207 0.764432
3.00442 0.771684
3.00677 0.773363
3.00911 0.772867
3.01146 0.776663
3.0138 0.792013
3.01615 0.792735
3.01849 0.785123
3.02084 0.781425
3.02318 0.784063
3.02553 0.789622
3.02787 0.791694
3.03022 0.791251
3.03256 0.792741
3.03491 0.797438
3.03726 0.804828
3.0396 0.811303
3.04195 0.817912
3.04429 0.816554
3.04664 0.819098
3.04898 0.834384
3.05133 0.834339
3.05367 0.842529
3.05602 0.847766
3.05836 0.853006
3.06071 0.86177
3.06305 0.872028
3.0654 0.883496
3.06774 0.892234
3.07009 0.901829
3.07244 0.913117
3.07478 0.919537
3.07713 0.935017
3.07947 0.951624
3.08182 0.965016
3.08416 0.97469
3.08651 0.985223
3.08885 1.01633
3.0912 1.03648
3.09354 1.05303
3.09589 1.0733
3.09823 1.10318
3.10058 1.12466
3.10293 1.15149
3.10527 1.18471
3.10762 1.21753
3.10996 1.23947
3.11231 1.26671
3.11465 1.31372
3.117 1.3591
3.11934 1.39465
3.12169 1.42102
3.12403 1.46063
3.12638 1.5106
3.12872 1.56324
3.13107 1.61083
3.13342 1.64934
3.13576 1.69416
3.13811 1.75165
3.14045 1.81152
3.1428 1.8587
3.14514 1.8889
3.14749 1.93664
3.14983 1.97085
3.15218 2.00129
3.15452 2.02734
3.15687 2.04736
3.15921 2.05954
3.16156 2.07584
3.16391 2.07461
3.16625 2.0688
3.1686 2.0653
3.17094 2.05796
3.17329 2.04244
3.17563 2.00777
3.17798 1.9842
3.18032 1.97537
3.18267 1.95712
3.18501 1.93606
3.18736 1.91702
3.1897 1.89941
3.19205 1.88267
3.19439 1.86541
3.19674 1.83168
3.19909 1.81692
3.20143 1.78411
3.20378 1.73042
3.20612 1.67002
3.20847 1.6222
3.21081 1.55814
3.21316 1.47915
3.2155 1.39654
3.21785 1.32212
3.22019 1.25395
3.22254 1.21264
3.22488 1.1721
3.22723 1.13043
3.22958 1.08961
3.23192 1.04994
3.23427 1.02341
3.23661 0.992398
3.23896 0.964608
3.2413 0.945676
3.24365 0.932188
3.24599 0.913379
3.24834 0.899828
3.25068 0.889484
3.25303 0.878582
3.25537 0.862174
3.25772 0.839392
3.26007 0.835484
3.26241 0.833968
3.26476 0.827087
3.2671 0.815678
3.26945 0.813564
3.27179 0.805526
3.27414 0.79647
3.27648 0.788447
3.27883 0.781938
3.28117 0.777744
3.28352 0.774425
3.28586 0.769139
3.28821 0.766168
3.29056 0.770129
3.2929 0.773432
3.29525 0.768461
3.29759 0.759839
3.29994 0.754033
3.30228 0.753503
3.30463 0.745406
3.30697 0.746891
3.30932 0.7414
3.31166 0.741463
3.31401 0.751308
3.31635 0.749417
3.3187 0.743247
3.32104 0.738767
3.32339 0.735909
3.32574 0.735514
3.32808 0.740194
3.33043 0.732007
3.33277 0.737924
3.33512 0.74012
3.33746 0.736951
3.33981 0.741082
3.34215 0.741093
3.3445 0.723538
3.34684 0.721221
3.34919 0.732029
3.35153 0.73513
3.35388 0.726657
3.35623 0.72567
3.35857 0.729669
3.36092 0.734797
3.36326 0.736812
3.36561 0.732643
3.36795 0.733788
3.3703 0.728669
3.37264 0.724021
3.37499 0.728236
3.37733 0.742785
3.37968 0.728125
3.38202 0.723788
3.38437 0.722443
3.38672 0.718467
3.38906 0.720959
3.39141 0.719845
3.39375 0.723373
3.3961 0.72309
3.39844 0.718763
3.40079 0.721307
3.40313 0.717971
3.40548 0.722156
3.40782 0.722538
3.41017 0.71863
3.41251 0.718362
3.41486 0.72138
3.41721 0.719108
3.41955 0.713692
3.4219 0.709841
3.42424 0.712378
3.42659 0.716819
3.42893 0.721091
3.43128 0.721893
3.43362 0.722973
3.43597 0.726197
3.43831 0.715304
3.44066 0.716579
3.443 0.723161
3.44535 0.727062
3.44769 0.725844
3.45004 0.732102
3.45239 0.734364
3.45473 0.731109
3.45708 0.724277
3.45942 0.719666
3.46177 0.728436
3.46411 0.73267
3.46646 0.730244
3.4688 0.724246
3.47115 0.718186
3.47349 0.715426
3.47584 0.710679
3.47818 0.708995
3.48053 0.713593
3.48288 0.721409
3.48522 0.726273
3.48757 0.729606
3.48991 0.732519
3.49226 0.728379
3.4946 0.724831
3.49695 0.730831
3.49929 0.735595
3.50164 0.73066
3.50398 0.720505
3.50633 0.715004
3.50867 0.719103
3.51102 0.720227
3.51337 0.719562
3.51571 0.722803
3.51806 0.730318
3.5204 0.736832
3.52275 0.728392
3.52509 0.720188
3.52744 0.720901
3.52978 0.727556
3.53213 0.736464
3.53447 0.743601
3.53682 0.735425
3.53916 0.728321
3.54151 0.726565
3.54386 0.728359
3.5462 0.728399
3.54855 0.726322
3.55089 0.731484
3.55324 0.737373
3.55558 0.740682
3.55793 0.739827
3.56027 0.735867
3.56262 0.7232
3.56496 0.724123
3.56731 0.734118
3.56965 0.742454
3.572 0.736849
3.57434 0.729072
3.57669 0.729458
3.57904 0.7317
3.58138 0.731525
3.58373 0.731106
3.58607 0.732931
3.58842 0.737531
3.59076 0.738826
3.59311 0.738748
3.59545 0.746554
3.5978 0.741876
3.60014 0.739853
3.60249 0.733993
3.60483 0.727822
3.60718 0.729155
3.60953 0.72958
3.61187 0.736559
3.61422 0.73621
3.61656 0.734596
3.61891 0.741213
3.62125 0.750003
3.6236 0.749917
3.62594 0.742091
3.62829 0.734594
3.63063 0.733795
3.63298 0.738426
3.63532 0.732558
3.63767 0.7296
3.64002 0.728996
3.64236 0.72979
3.64471 0.732128
3.64705 0.741426
3.6494 0.750475
3.65174 0.750083
3.65409 0.742338
3.65643 0.738435
3.65878 0.737103
3.66112 0.737052
3.66347 0.738946
3.66581 0.741184
3.66816 0.741229
3.67051 0.737788
3.67285 0.738069
3.6752 0.737158
3.67754 0.738148
3.67989 0.742721
3.68223 0.739679
3.68458 0.746593
3.68692 0.74417
3.68927 0.746759
3.69161 0.757909
3.69396 0.750941
3.6963 0.746007
3.69865 0.753637
3.70099 0.760963
3.70334 0.761612
3.70569 0.758233
3.70803 0.763494
3.71038 0.767133
3.71272 0.763448
3.71507 0.755782
3.71741 0.752852
3.71976 0.75804
3.7221 0.756657
3.72445 0.759702
3.72679 0.763842
3.72914 0.762236
3.73148 0.755122
3.73383 0.752162
3.73618 0.754712
3.73852 0.762086
3.74087 0.768574
3.74321 0.757004
3.74556 0.75746
3.7479 0.761917
3.75025 0.765144
3.75259 0.764483
3.75494 0.760666
3.75728 0.750271
3.75963 0.755993
3.76197 0.763083
3.76432 0.768187
3.76667 0.776494
3.76901 0.783377
3.77136 0.782286
3.7737 0.775029
3.77605 0.771834
3.77839 0.78178
3.78074 0.78736
3.78308 0.775215
3.78543 0.776447
3.78777 0.781238
3.79012 0.778585
3.79246 0.779529
3.79481 0.788172
3.79716 0.788773
3.7995 0.787844
3.80185 0.786075
3.80419 0.77217
3.80654 0.779141
3.80888 0.788523
3.81123 0.794027
3.81357 0.793109
3.81592 0.786677
3.81826 0.778615
3.82061 0.790095
3.82295 0.800228
3.8253 0.806452
3.82765 0.812202
3.82999 0.805733
3.83234 0.79883
3.83468 0.801588
3.83703 0.810234
3.83937 0.81874
3.84172 0.824637
3.84406 0.811183
3.84641 0.81197
3.84875 0.813132
3.8511 0.806952
3.85344 0.80283
3.85579 0.808219
3.85813 0.826855
3.86048 0.835436
3.86283 0.828347
3.86517 0.816866
3.86752 0.827963
3.86986 0.821054
3.87221 0.825141
3.87455 0.831142
3.8769 0.82179
3.87924 0.834635
3.88159 0.829001
3.88393 0.822297
3.88628 0.821881
3.88862 0.829286
3.89097 0.835956
3.89332 0.847527
3.89566 0.85125
3.89801 0.849711
3.90035 0.845393
3.9027 0.838318
3.90504 0.832573
3.90739 0.836199
3.90973 0.844165
3.91208 0.851872
3.91442 0.855444
3.91677 0.851009
3.91911 0.849836
3.92146 0.857894
3.92381 0.868532
3.92615 0.871328
3.9285 0.863344
3.93084 0.862004
3.93319 0.858337
3.93553 0.857586
3.93788 0.863826
3.94022 0.871622
3.94257 0.87443
3.94491 0.881437
3.94726 0.885241
3.9496 0.882421
3.95195 0.876311
3.9543 0.876588
3.95664 0.868985
3.95899 0.869196
3.96133 0.882421
3.96368 0.903259
3.96602 0.89395
3.96837 0.898873
3.97071 0.907332
3.97306 0.914189
3.9754 0.914731
3.97775 0.897847
3.98009 0.892017
3.98244 0.908409
3.98478 0.924344
3.98713 0.927129
3.98948 0.934822
3.99182 0.919119
3.99417 0.923534
3.99651 0.932946
3.99886 0.938213
4.0012 0.940108
4.00355 0.960266
4.00589 0.96208
4.00824 0.958374
4.01058 0.960692
4.01293 0.976037
4.01527 0.986155
4.01762 0.982995
4.01997 0.976978
4.02231 0.973386
4.02466 0.977077
4.027 0.995819
4.02935 0.999728
4.03169 1.0052
4.03404 1.01013
4.03638 1.01284
4.03873 1.01493
4.04107 1.02651
4.04342 1.03271
4.04576 1.03775
4.04811 1.03999
4.05046 1.03485
4.0528 1.03714
4.05515 1.05583
4.05749 1.06825
4.05984 1.07289
4.06218 1.07519
4.06453 1.07581
4.06687 1.0851
4.06922 1.08985
4.07156 1.09585
4.07391 1.10547
4.07625 1.10778
4.0786 1.11135
4.08095 1.10839
4.08329 1.10493
4.08564 1.10977
4.08798 1.13114
4.09033 1.11822
4.09267 1.10818
4.09502 1.11661
4.09736 1.13182
4.09971 1.13354
4.10205 1.13579
4.1044 1.14012
4.10674 1.14283
4.10909 1.14591
4.11143 1.15318
4.11378 1.17021
4.11613 1.17909
4.11847 1.16877
4.12082 1.1581
4.12316 1.15458
4.12551 1.14777
4.12785 1.16374
4.1302 1.16901
4.13254 1.16826
4.13489 1.16634
4.13723 1.16747
4.13958 1.17027
4.14192 1.17122
4.14427 1.16258
4.14662 1.15222
4.14896 1.14985
4.15131 1.15535
4.15365 1.14904
4.156 1.14645
4.15834 1.13701
4.16069 1.12009
4.16303 1.11505
4.16538 1.11401
4.16772 1.10952
4.17007 1.11075
4.17241 1.11904
4.17476 1.12906
4.17711 1.13298
4.17945 1.12004
4.1818 1.10699
4.18414 1.09273
4.18649 1.07621
4.18883 1.08391
4.19118 1.0857
4.19352 1.07213
4.19587 1.0576
4.19821 1.0522
4.20056 1.05107
4.2029 1.05253
4.20525 1.05426
4.2076 1.04551
4.20994 1.03004
4.21229 1.02387
4.21463 1.03188
4.21698 1.03059
4.21932 1.01994
4.22167 1.0128
4.22401 1.02101
4.22636 1.0265
4.2287 1.03275
4.23105 1.02495
4.23339 1.01122
4.23574 1.00228
4.23808 1.00548
4.24043 1.00029
4.24278 0.999946
4.24512 1.00425
4.24747 1.00435
4.24981 0.986738
4.25216 0.98547
4.2545 0.988911
4.25685 0.99315
4.25919 0.989125
4.26154 0.972633
4.26388 0.974863
4.26623 0.987757
4.26857 0.990408
4.27092 0.994161
4.27327 0.999037
4.27561 0.968563
4.27796 0.97846
4.2803 0.981537
4.28265 0.982341
4.28499 0.986807
4.28734 0.997477
4.28968 0.970746
4.29203 0.967015
4.29437 0.973011
4.29672 0.978407
4.29906 0.97727
4.30141 0.979533
4.30376 0.975976
4.3061 0.975455
4.30845 0.972892
4.31079 0.968186
4.31314 0.97674
4.31548 0.980534
4.31783 0.989105
4.32017 0.990028
4.32252 0.983552
4.32486 0.982022
4.32721 0.982183
4.32955 0.996938
4.3319 1.00678
4.33425 1.0126
4.33659 1.02052
4.33894 1.01935
4.34128 1.02832
4.34363 1.03022
4.34597 1.02692
4.34832 1.02602
4.35066 1.03976
4.35301 1.03382
4.35535 1.03679
4.3577 1.03481
4.36004 1.03007
4.36239 1.03885
4.36473 1.06166
4.36708 1.06389
4.36943 1.07071
4.37177 1.08585
4.37412 1.10345
4.37646 1.11233
4.37881 1.11882
4.38115 1.13285
4.3835 1.14925
4.38584 1.16321
4.38819 1.17453
4.39053 1.20121
4.39288 1.2096
4.39522 1.22199
4.39757 1.24785
4.39992 1.28456
4.40226 1.32372
4.40461 1.36462
4.40695 1.39639
4.4093 1.42457
4.41164 1.46012
4.41399 1.51432
4.41633 1.57148
4.41868 1.61917
4.42102 1.66447
4.42337 1.71577
4.42571 1.77938
4.42806 1.8449
4.43041 1.9392
4.43275 2.04672
4.4351 2.15159
4.43744 2.24184
4.43979 2.33075
4.44213 2.43406
4.44448 2.54974
4.44682 2.6756
4.44917 2.80467
4.45151 2.91806
4.45386 3.0732
4.4562 3.22045
4.45855 3.35874
4.4609 3.4939
4.46324 3.63487
4.46559 3.78033
4.46793 3.88193
4.47028 3.97049
4.47262 4.0612
4.47497 4.16185
4.47731 4.28525
4.47966 4.3753
4.482 4.41047
4.48435 4.44239
4.48669 4.50234
4.48904 4.54884
4.49138 4.5175
4.49373 4.46835
4.49608 4.43804
4.49842 4.39843
4.50077 4.27888
4.50311 4.18105
4.50546 4.1127
4.5078 3.98601
4.51015 3.81901
4.51249 3.65194
4.51484 3.45715
4.51718 3.27848
4.51953 3.11448
4.52187 2.95287
4.52422 2.78715
4.52657 2.62203
4.52891 2.50386
4.53126 2.37344
4.5336 2.23641
4.53595 2.09968
4.53829 1.97159
4.54064 1.86985
4.54298 1.78159
4.54533 1.70349
4.54767 1.63363
4.55002 1.57206
4.55236 1.52433
4.55471 1.46762
4.55706 1.4138
4.5594 1.37709
4.56175 1.34363
4.56409 1.27737
4.56644 1.25753
4.56878 1.22758
4.57113 1.19566
4.57347 1.17419
4.57582 1.16953
4.57816 1.15516
4.58051 1.12453
4.58285 1.10793
4.5852 1.10593
4.58755 1.10493
4.58989 1.07706
4.59224 1.0473
4.59458 1.02647
4.59693 1.00675
4.59927 0.993378
4.60162 0.996851
4.60396 0.99859
4.60631 1.00005
4.60865 0.987726
4.611 0.978553
4.61334 0.98061
4.61569 0.958223
4.61803 0.956539
4.62038 0.945912
4.62273 0.939593
4.62507 0.938405
4.62742 0.928562
4.62976 0.916673
4.63211 0.911362
4.63445 0.906011
4.6368 0.899824
4.63914 0.894988
4.64149 0.896128
4.64383 0.905079
4.64618 0.905781
4.64852 0.897945
4.65087 0.887927
4.65322 0.887994
4.65556 0.887661
4.65791 0.865874
4.66025 0.859555
4.6626 0.865054
4.66494 0.860072
4.66729 0.875302
4.66963 0.859726
4.67198 0.861815
4.67432 0.870631
4.67667 0.869526
4.67901 0.859791
4.68136 0.851993
4.68371 0.837312
4.68605 0.83779
4.6884 0.847668
4.69074 0.83892
4.69309 0.828561
4.69543 0.834158
4.69778 0.843939
4.70012 0.845782
4.70247 0.835016
4.70481 0.831425
4.70716 0.832267
4.7095 0.829698
4.71185 0.822933
4.7142 0.82118
4.71654 0.84164
4.71889 0.818371
4.72123 0.810488
4.72358 0.80987
4.72592 0.812992
4.72827 0.817092
4.73061 0.812211
4.73296 0.807012
4.7353 0.802464
4.73765 0.807093
4.73999 0.819198
4.74234 0.818997
4.74468 0.818658
4.74703 0.803173
4.74938 0.789593
4.75172 0.792706
4.75407 0.815499
4.75641 0.795144
4.75876 0.770767
4.7611 0.77928
4.76345 0.794684
4.76579 0.792659
4.76814 0.786013
4.77048 0.79598
4.77283 0.798269
4.77517 0.802403
4.77752 0.802913
4.77987 0.785469
4.78221 0.788671
4.78456 0.783839
4.7869 0.775927
4.78925 0.777322
4.79159 0.794069
4.79394 0.807793
4.79628 0.79947
4.79863 0.802907
4.80097 0.798495
4.80332 0.786235
4.80566 0.789251
4.80801 0.793762
4.81036 0.786908
4.8127 0.77992
4.81505 0.779625
4.81739 0.784744
4.81974 0.7707
4.82208 0.785594
4.82443 0.800005
4.82677 0.803236
4.82912 0.795742
4.83146 0.789692
4.83381 0.797966
4.83615 0.797858
4.8385 0.795828
4.84085 0.793495
4.84319 0.791188
4.84554 0.794973
4.84788 0.810417
4.85023 0.813647
4.85257 0.8049
4.85492 0.790763
4.85726 0.781063
4.85961 0.785797
4.86195 0.79302
4.8643 0.798059
4.86664 0.798895
4.86899 0.795368
4.87133 0.787373
4.87368 0.795984
4.87603 0.80084
4.87837 0.802675
4.88072 0.803177
4.88306 0.798576
4.88541 0.810398
4.88775 0.804626
4.8901 0.798389
4.89244 0.796491
4.89479 0.796136
4.89713 0.808783
4.89948 0.806654
4.90182 0.808199
4.90417 0.814917
4.90652 0.82257
4.90886 0.823234
4.91121 0.823827
4.91355 0.816934
4.9159 0.811628
4.91824 0.807211
4.92059 0.798673
4.92293 0.812623
4.92528 0.821638
4.92762 0.828679
4.92997 0.833068
4.93231 0.833284
4.93466 0.827726
4.93701 0.826756
4.93935 0.828155
4.9417 0.829079
4.94404 0.829105
4.94639 0.829263
4.94873 0.823896
4.95108 0.834613
4.95342 0.831045
4.95577 0.820702
4.95811 0.817044
4.96046 0.82146
4.9628 0.832942
4.96515 0.829901
4.9675 0.823694
4.96984 0.826597
4.97219 0.845942
4.97453 0.854169
4.97688 0.85686
4.97922 0.84588
4.98157 0.830792
4.98391 0.826276
4.98626 0.846095
4.9886 0.855091
4.99095 0.851867
4.99329 0.853616
4.99564 0.863579
4.99799 0.870164
5.00033 0.850586
5.00268 0.8491
5.00502 0.849051
5.00737 0.85133
5.00971 0.857661
5.01206 0.858605
5.0144 0.852316
5.01675 0.858705
5.01909 0.869091
5.02144 0.872103
5.02378 0.859615
5.02613 0.859489
5.02847 0.860597
5.03082 0.864426
5.03317 0.870202
5.03551 0.875634
5.03786 0.876522
5.0402 0.876673
5.04255 0.874574
5.04489 0.875891
5.04724 0.88015
5.04958 0.882101
5.05193 0.886719
5.05427 0.884886
5.05662 0.888876
5.05896 0.895554
5.06131 0.894644
5.06366 0.869564
5.066 0.857116
5.06835 0.863526
5.07069 0.874159
5.07304 0.876666
5.07538 0.867322
5.07773 0.887619
5.08007 0.894063
5.08242 0.880919
5.08476 0.862045
5.08711 0.853884
5.08945 0.86569
5.0918 0.874915
5.09415 0.893415
5.09649 0.904332
5.09884 0.902767
5.10118 0.894468
5.10353 0.885357
5.10587 0.892053
5.10822 0.893235
5.11056 0.897096
5.11291 0.905477
5.11525 0.894039
5.1176 0.885154
5.11994 0.889559
5.12229 0.908445
5.12464 0.927013
5.12698 0.926796
5.12933 0.931099
5.13167 0.900683
5.13402 0.888587
5.13636 0.884797
5.13871 0.878925
5.14105 0.882565
5.1434 0.893322
5.14574 0.889979
5.14809 0.887115
5.15043 0.890148
5.15278 0.896798
5.15512 0.896769
5.15747 0.908995
5.15982 0.905922
5.16216 0.90471
5.16451 0.914477
5.16685 0.920846
5.1692 0.904901
5.17154 0.898189
5.17389 0.881119
5.17623 0.869205
5.17858 0.882163
5.18092 0.883257
5.18327 0.896315
5.18561 0.890414
5.18796 0.872854
5.19031 0.856333
5.19265 0.851465
5.195 0.833272
5.19734 0.856994
5.19969 0.870098
5.20203 0.872882
5.20438 0.879432
5.20672 0.875613
5.20907 0.870251
5.21141 0.861184
5.21376 0.849455
5.2161 0.839115
5.21845 0.837073
5.2208 0.858002
5.22314 0.852267
5.22549 0.841995
5.22783 0.833537
5.23018 0.829503
5.23252 0.835702
5.23487 0.824871
5.23721 0.824961
5.23956 0.826668
5.2419 0.831658
5.24425 0.84578
5.24659 0.822161
5.24894 0.793603
5.25129 0.794077
5.25363 0.80985
5.25598 0.820363
5.25832 0.816085
5.26067 0.814365
5.26301 0.810477
5.26536 0.809718
5.2677 0.81296
5.27005 0.815989
5.27239 0.803039
5.27474 0.789087
5.27708 0.78331
5.27943 0.774438
5.28177 0.767264
5.28412 0.791815
5.28647 0.804176
5.28881 0.799749
5.29116 0.79621
5.2935 0.791524
5.29585 0.780966
5.29819 0.784049
5.30054 0.778078
5.30288 0.7708
5.30523 0.772042
5.30757 0.777188
5.30992 0.769278
5.31226 0.772538
5.31461 0.764953
5.31696 0.752395
5.3193 0.74833
5.32165 0.760054
5.32399 0.773754
5.32634 0.74609
5.32868 0.753806
5.33103 0.766748
5.33337 0.767014
5.33572 0.755204
5.33806 0.759513
5.34041 0.773466
5.34275 0.779761
5.3451 0.772134
5.34745 0.757825
5.34979 0.761277
5.35214 0.761464
5.35448 0.751925
5.35683 0.739435
5.35917 0.73224
5.36152 0.734732
5.36386 0.73377
5.36621 0.725646
5.36855 0.726026
5.3709 0.734926
5.37324 0.746805
5.37559 0.752851
5.37794 0.750679
5.38028 0.752847
5.38263 0.749279
5.38497 0.747513
5.38732 0.752058
5.38966 0.743221
5.39201 0.76325
5.39435 0.766095
5.3967 0.756503
5.39904 0.745995
5.40139 0.746147
5.40373 0.750372
5.40608 0.758692
5.40842 0.773703
5.41077 0.787028
5.41312 0.787521
5.41546 0.765155
5.41781 0.76977
5.42015 0.787497
5.4225 0.798672
5.42484 0.795708
5.42719 0.783713
5.42953 0.790229
5.43188 0.793053
5.43422 0.799364
5.43657 0.813855
5.43891 0.830374
5.44126 0.834099
5.44361 0.836403
5.44595 0.840366
5.4483 0.847388
5.45064 0.859103
5.45299 0.87266
5.45533 0.875541
5.45768 0.884388
5.46002 0.906783
5.46237 0.920101
5.46471 0.930297
5.46706 0.956813
5.4694 0.983383
5.47175 1.00368
5.4741 1.02943
5.47644 1.0652
5.47879 1.0992
5.48113 1.103
5.48348 1.10664
5.48582 1.12879
5.48817 1.16211
5.49051 1.19437
5.49286 1.21507
5.4952 1.22381
5.49755 1.22467
5.49989 1.22575
5.50224 1.21936
5.50459 1.20429
5.50693 1.18624
5.50928 1.17654
5.51162 1.16819
5.51397 1.14978
5.51631 1.11091
5.51866 1.0572
5.521 1.01763
5.52335 1.00766
5.52569 0.994207
5.52804 0.973365
5.53038 0.957555
5.53273 0.952788
5.53507 0.917908
5.53742 0.898753
5.53977 0.870686
5.54211 0.851082
5.54446 0.842346
5.5468 0.831407
5.54915 0.821556
5.55149 0.82179
5.55384 0.820838
5.55618 0.820243
5.55853 0.817794
5.56087 0.800267
5.56322 0.802076
5.56556 0.792765
5.56791 0.783869
5.57026 0.775294
5.5726 0.766311
5.57495 0.777264
5.57729 0.78998
5.57964 0.780663
5.58198 0.756229
5.58433 0.739023
5.58667 0.754786
5.58902 0.764656
5.59136 0.768071
5.59371 0.771289
5.59605 0.769572
5.5984 0.763509
5.60075 0.767472
5.60309 0.768618
5.60544 0.755673
5.60778 0.751599
5.61013 0.754203
5.61247 0.753664
5.61482 0.762674
5.61716 0.757092
5.61951 0.767924
5.62185 0.77218
5.6242 0.767045
5.62654 0.770436
5.62889 0.765303
5.63124 0.760244
5.63358 0.752152
5.63593 0.746905
5.63827 0.746579
5.64062 0.743256
5.64296 0.754263
5.64531 0.747294
5.64765 0.752313
5.65 0.761596
5.65234 0.754445
5.65469 0.729733
5.65703 0.747203
5.65938 0.767331
5.66172 0.769968
5.66407 0.760713
5.66642 0.761021
5.66876 0.749525
5.67111 0.752064
5.67345 0.766479
5.6758 0.773697
5.67814 0.767481
5.68049 0.766002
5.68283 0.742409
5.68518 0.748536
5.68752 0.755449
5.68987 0.76113
5.69221 0.768505
5.69456 0.761104
5.69691 0.752848
5.69925 0.757869
5.7016 0.770262
5.70394 0.777253
5.70629 0.768771
5.70863 0.771034
5.71098 0.763733
5.71332 0.763469
5.71567 0.766641
5.71801 0.767579
5.72036 0.763301
5.7227 0.759957
5.72505 0.76071
5.7274 0.758008
5.72974 0.758676
5.73209 0.76526
5.73443 0.760322
5.73678 0.764232
5.73912 0.774411
5.74147 0.779154
5.74381 0.78014
5.74616 0.783752
5.7485 0.780491
5.75085 0.791636
5.75319 0.796221
5.75554 0.797445
5.75789 0.796497
5.76023 0.789881
5.76258 0.773926
5.76492 0.777968
5.76727 0.778274
5.76961 0.769778
5.77196 0.760905
5.7743 0.772642
5.77665 0.772752
5.77899 0.776177
5.78134 0.776115
5.78368 0.781177
5.78603 0.795899
5.78837 0.794012
5.79072 0.799473
5.79307 0.792725
5.79541 0.777623
5.79776 0.763078
5.8001 0.760117
5.80245 0.780569
5.80479 0.791811
5.80714 0.788614
5.80948 0.785396
5.81183 0.789538
5.81417 0.796479
5.81652 0.810137
5.81886 0.808726
5.82121 0.802121
5.82356 0.800424
5.8259 0.804842
5.82825 0.800244
5.83059 0.786983
5.83294 0.79812
5.83528 0.808743
5.83763 0.806379
5.83997 0.796319
5.84232 0.817078
5.84466 0.799313
5.84701 0.78459
5.84935 0.789825
5.8517 0.801195
5.85405 0.793447
5.85639 0.805744
5.85874 0.822785
5.86108 0.811425
5.86343 0.812253
5.86577 0.836483
5.86812 0.846302
5.87046 0.820133
5.87281 0.834842
5.87515 0.833827
5.8775 0.823215
5.87984 0.821153
5.88219 0.83221
5.88454 0.840178
5.88688 0.851143
5.88923 0.849505
5.89157 0.85183
5.89392 0.871585
5.89626 0.86696
5.89861 0.875844
5.90095 0.880348
5.9033 0.880065
5.90564 0.874878
5.90799 0.865633
5.91033 0.860456
5.91268 0.860425
5.91502 0.87261
5.91737 0.887285
5.91972 0.893806
5.92206 0.886579
5.92441 0.884347
5.92675 0.877199
5.9291 0.873171
5.93144 0.878262
5.93379 0.891877
5.93613 0.903921
5.93848 0.897234
5.94082 0.911731
5.94317 0.920651
5.94551 0.918612
5.94786 0.910234
5.95021 0.901925
5.95255 0.930738
5.9549 0.96255
5.95724 0.962554
5.95959 0.945283
5.96193 0.944854
5.96428 0.954514
5.96662 0.955084
5.96897 0.955011
5.97131 0.943738
5.97366 0.927819
5.976 0.926147
5.97835 0.934549
5.9807 0.94421
5.98304 0.95051
5.98539 0.951035
5.98773 0.954013
5.99008 0.975693
5.99242 0.983955
5.99477 0.978639
5.99711 0.978108
5.99946 0.980827
6.0018 0.981799
6.00415 0.980969
6.00649 1.01915
6.00884 1.01319
6.01119 1.00085
6.01353 1.00923
6.01588 1.03924
6.01822 1.04119
6.02057 1.03303
6.02291 1.01227
6.02526 1.00226
6.0276 1.00891
6.02995 1.02316
6.03229 1.02477
6.03464 1.03307
6.03698 1.03774
6.03933 1.03174
6.04167 1.02705
6.04402 1.04039
6.04637 1.0265
6.04871 1.04052
6.05106 1.04497
6.0534 1.04337
6.05575 1.04136
6.05809 1.04002
6.06044 1.04763
6.06278 1.06155
6.06513 1.07063
6.06747 1.07498
6.06982 1.07488
6.07216 1.06758
6.07451 1.07381
6.07686 1.07002
6.0792 1.06715
6.08155 1.06863
6.08389 1.0714
6.08624 1.06548
6.08858 1.05644
6.09093 1.04551
6.09327 1.04855
6.09562 1.0527
6.09796 1.04474
6.10031 1.05088
6.10265 1.03191
6.105 1.0287
6.10735 1.04283
6.10969 1.05212
6.11204 1.03577
6.11438 1.03258
6.11673 1.00942
6.11907 1.01393
6.12142 1.03651
6.12376 1.05291
6.12611 1.0409
6.12845 1.02412
6.1308 1.02538
6.13314 1.00405
6.13549 0.99583
6.13784 1.01416
6.14018 1.03448
6.14253 1.03331
6.14487 1.02886
6.14722 0.998556
6.14956 0.980512
6.15191 0.993687
6.15425 1.01126
6.1566 1.0208
6.15894 1.01448
6.16129 0.997951
6.16363 0.985442
6.16598 0.987105
6.16832 0.99951
6.17067 0.969132
6.17302 0.968992
6.17536 0.98817
6.17771 0.995363
6.18005 0.977459
6.1824 0.97841
6.18474 0.991376
6.18709 0.998556
6.18943 0.994482
6.19178 0.979858
6.19412 0.961383
6.19647 0.953061
6.19881 0.97807
6.20116 0.975825
6.20351 0.96891
6.20585 0.964671
6.2082 0.960532
6.21054 0.965432
6.21289 0.951716
6.21523 0.965189
6.21758 0.970244
6.21992 0.963467
6.22227 0.965435
6.22461 0.961241
6.22696 0.967447
6.2293 0.98995
6.23165 1.00227
6.234 0.997432
6.23634 0.989786
6.23869 0.982652
6.24103 0.966681
6.24338 0.964812
6.24572 0.981027
6.24807 1.00076
6.25041 0.999152
6.25276 1.00037
6.2551 1.00736
6.25745 1.02698
6.25979 1.04164
6.26214 1.04301
6.26449 1.04212
6.26683 1.04302
6.26918 1.04918
6.27152 1.05572
6.27387 1.06958
6.27621 1.08705
6.27856 1.08608
6.2809 1.09118
6.28325 1.0946
6.28559 1.1031
6.28794 1.11992
6.29028 1.13872
6.29263 1.14025
6.29498 1.15248
6.29732 1.15349
6.29967 1.15922
6.30201 1.16644
6.30436 1.17155
6.3067 1.1861
6.30905 1.17845
6.31139 1.19729
6.31374 1.22718
6.31608 1.24499
6.31843 1.23957
6.32077 1.23483
6.32312 1.21569
6.32546 1.2309
6.32781 1.24247
6.33016 1.24474
6.3325 1.24543
6.33485 1.2357
6.33719 1.22901
6.33954 1.21169
6.34188 1.22048
6.34423 1.24228
6.34657 1.24202
6.34892 1.21481
6.35126 1.20984
6.35361 1.19189
6.35595 1.17864
6.3583 1.1824
6.36065 1.2003
6.36299 1.19753
6.36534 1.17498
6.36768 1.15278
6.37003 1.14796
6.37237 1.15722
6.37472 1.16446
6.37706 1.16288
6.37941 1.17519
6.38175 1.1592
6.3841 1.14706
6.38644 1.15088
6.38879 1.15649
6.39114 1.13377
6.39348 1.12562
6.39583 1.11672
6.39817 1.11527
6.40052 1.11819
6.40286 1.11349
6.40521 1.10429
6.40755 1.10755
6.4099 1.0851
6.41224 1.06517
6.41459 1.05914
6.41693 1.05888
6.41928 1.08812
6.42163 1.07841
6.42397 1.06243
6.42632 1.05454
6.42866 1.04602
6.43101 1.01813
6.43335 1.01578
6.4357 0.994833
6.43804 0.99084
6.44039 0.981645
6.44273 0.969626
6.44508 0.981203
6.44742 0.971265
6.44977 0.953545
6.45211 0.932686
6.45446 0.934144
6.45681 0.952396
6.45915 0.951178
6.4615 0.933959
6.46384 0.909295
6.46619 0.91564
6.46853 0.928656
6.47088 0.924483
6.47322 0.901141
6.47557 0.910609
6.47791 0.890353
6.48026 0.889873
6.4826 0.901477
6.48495 0.909264
6.4873 0.903764
6.48964 0.894515
6.49199 0.885137
6.49433 0.895744
6.49668 0.91303
6.49902 0.916873
6.50137 0.893525
6.50371 0.868966
6.50606 0.862731
6.5084 0.855143
6.51075 0.8484
6.51309 0.850266
6.51544 0.86611
6.51779 0.873356
6.52013 0.865133
6.52248 0.861727
6.52482 0.8665
6.52717 0.878194
6.52951 0.891733
6.53186 0.882086
6.5342 0.889612
6.53655 0.880202
6.53889 0.86297
6.54124 0.851352
6.54358 0.850663
6.54593 0.845229
6.54828 0.839092
6.55062 0.832052
6.55297 0.839354
6.55531 0.862698
6.55766 0.885079
6.56 0.881732
6.56235 0.872086
6.56469 0.852061
6.56704 0.848673
6.56938 0.860865
6.57173 0.859015
6.57407 0.857993
6.57642 0.869333
6.57876 0.864685
6.58111 0.852686
6.58346 0.843279
6.5858 0.841924
6.58815 0.862094
6.59049 0.885628
6.59284 0.884644
6.59518 0.875002
6.59753 0.866662
6.59987 0.858298
6.60222 0.858058
6.60456 0.841649
6.60691 0.837705
6.60925 0.850216
6.6116 0.871765
6.61395 0.888235
6.61629 0.885488
6.61864 0.886776
6.62098 0.894087
6.62333 0.89209
6.62567 0.881638
6.62802 0.878229
6.63036 0.89416
6.63271 0.880293
6.63505 0.86845
6.6374 0.86582
6.63974 0.88031
6.64209 0.910993
6.64444 0.913736
6.64678 0.904358
6.64913 0.892601
6.65147 0.89289
6.65382 0.899207
6.65616 0.895601
6.65851 0.883517
6.66085 0.872571
6.6632 0.883094
6.66554 0.881996
6.66789 0.882584
6.67023 0.907141
6.67258 0.906383
6.67493 0.91178
6.67727 0.92919
6.67962 0.926078
6.68196 0.906486
6.68431 0.894894
6.68665 0.908542
6.689 0.918067
6.69134 0.92261
6.69369 0.925329
6.69603 0.937694
6.69838 0.95365
6.70072 0.91999
6.70307 0.922561
6.70541 0.919524
6.70776 0.911507
6.71011 0.912431
6.71245 0.924091
6.7148 0.914855
6.71714 0.926039
6.71949 0.945005
6.72183 0.947737
6.72418 0.943779
6.72652 0.949878
6.72887 0.969562
6.73121 0.958062
6.73356 0.962967
6.7359 0.955209
6.73825 0.947609
6.7406 0.952976
6.74294 0.96135
6.74529 0.932472
6.74763 0.929349
6.74998 0.954769
6.75232 0.974132
6.75467 0.96673
6.75701 0.945063
6.75936 0.933161
6.7617 0.942297
6.76405 0.94903
6.76639 0.953361
6.76874 0.956588
6.77109 0.958804
6.77343 0.978473
6.77578 0.990471
6.77812 0.988299
6.78047 0.974835
6.78281 0.962428
6.78516 0.965782
6.7875 0.979776
6.78985 0.988464
6.79219 0.985025
6.79454 0.976034
6.79688 0.975838
6.79923 0.991219
6.80158 0.985253
6.80392 0.978609
6.80627 0.972665
6.80861 0.983662
6.81096 0.996351
6.8133 0.991986
6.81565 1.00173
6.81799 0.989754
6.82034 0.986089
6.82268 0.977158
6.82503 0.976907
6.82737 0.99615
6.82972 1.00526
6.83206 0.983011
6.83441 0.988734
6.83676 0.999879
6.8391 1.00577
6.84145 1.00697
6.84379 1.01339
6.84614 1.02037
6.84848 1.01177
6.85083 1.00299
6.85317 0.992813
6.85552 0.982764
6.85786 0.983647
6.86021 0.983452
6.86255 0.993244
6.8649 0.985554
6.86725 0.972241
6.86959 0.969623
6.87194 0.98221
6.87428 0.977389
6.87663 0.983217
6.87897 0.953202
6.88132 0.930138
6.88366 0.934362
6.88601 0.950301
6.88835 0.959798
6.8907 0.957673
6.89304 0.955229
6.89539 0.953685
6.89774 0.953553
6.90008 0.958727
6.90243 0.984002
6.90477 0.969043
6.90712 0.966723
6.90946 0.959153
6.91181 0.949051
6.91415 0.948923
6.9165 0.961989
6.91884 0.947999
6.92119 0.947254
6.92353 0.943072
6.92588 0.935694
6.92823 0.927684
6.93057 0.913889
6.93292 0.91466
6.93526 0.916552
6.93761 0.935471
6.93995 0.956198
6.9423 0.958648
6.94464 0.935495
6.94699 0.930078
6.94933 0.916296
6.95168 0.90118
6.95402 0.904773
6.95637 0.92805
6.95871 0.950609
6.96106 0.954527
6.96341 0.95174
6.96575 0.933081
6.9681 0.917535
6.97044 0.913862
6.97279 0.917558
6.97513 0.916847
6.97748 0.914411
6.97982 0.893145
6.98217 0.891453
6.98451 0.907312
6.98686 0.921441
6.9892 0.933193
6.99155 0.918703
6.9939 0.909917
6.99624 0.911765
6.99859 0.91504
7.00093 0.916218
7.00328 0.929822
7.00562 0.965383
7.00797 0.970171
7.01031 0.959061
7.01266 0.949605
7.015 0.947442
7.01735 0.945658
7.01969 0.961578
7.02204 0.986927
7.02439 0.985729
7.02673 0.98235
7.02908 0.984642
7.03142 0.984641
7.03377 1.00613
7.03611 1.00621
7.03846 1.00957
7.0408 1.04217
7.04315 1.07136
7.04549 1.06128
7.04784 1.06065
7.05018 1.0729
7.05253 1.08293
7.05488 1.07627
7.05722 1.06855
7.05957 1.07672
7.06191 1.09636
7.06426 1.11705
7.0666 1.1179
7.06895 1.11306
7.07129 1.11266
7.07364 1.12896
7.07598 1.1699
7.07833 1.19119
7.08067 1.19333
7.08302 1.18164
7.08536 1.16946
7.08771 1.15941
7.09006 1.15149
7.0924 1.17734
7.09475 1.17771
7.09709 1.17931
7.09944 1.17928
7.10178 1.16375
7.10413 1.14108
7.10647 1.17947
7.10882 1.1935
7.11116 1.1993
7.11351 1.19202
7.11585 1.17116
7.1182 1.14935
7.12055 1.1501
7.12289 1.13045
7.12524 1.13486
7.12758 1.12888
7.12993 1.11098
7.13227 1.09915
7.13462 1.11454
7.13696 1.13398
7.13931 1.13455
7.14165 1.10976
7.144 1.0874
7.14634 1.07866
7.14869 1.07794
7.15104 1.07618
7.15338 1.07193
7.15573 1.05424
7.15807 1.04653
7.16042 1.04309
7.16276 1.03343
7.16511 1.0231
7.16745 0.994381
7.1698 0.981427
7.17214 0.989408
7.17449 0.99874
7.17683 0.992936
7.17918 0.9692
7.18153 0.928579
7.18387 0.946935
7.18622 0.962588
7.18856 0.964371
7.19091 0.960984
7.19325 0.958077
7.1956 0.918209
7.19794 0.904877
7.20029 0.910966
7.20263 0.930401
7.20498 0.930681
7.20732 0.900817
7.20967 0.890363
7.21201 0.900784
7.21436 0.90945
7.21671 0.910587
7.21905 0.91731
7.2214 0.932578
7.22374 0.939851
7.22609 0.915061
7.22843 0.88626
7.23078 0.89133
7.23312 0.898456
7.23547 0.905766
7.23781 0.924688
7.24016 0.912236
7.2425 0.904201
7.24485 0.895232
7.2472 0.878535
7.24954 0.87751
7.25189 0.899459
7.25423 0.901135
7.25658 0.882754
7.25892 0.878712
7.26127 0.888204
7.26361 0.89766
7.26596 0.906051
7.2683 0.919149
7.27065 0.879306
7.27299 0.858905
7.27534 0.859882
7.27769 0.858185
7.28003 0.861443
7.28238 0.88264
7.28472 0.884916
7.28707 0.880011
7.28941 0.885419
7.29176 0.888889
7.2941 0.885669
7.29645 0.8818
7.29879 0.891314
7.30114 0.898222
7.30348 0.895995
7.30583 0.884606
7.30818 0.894668
7.31052 0.918197
7.31287 0.918287
7.31521 0.911664
7.31756 0.910866
7.3199 0.915066
7.32225 0.907012
7.32459 0.899324
7.32694 0.90676
7.32928 0.912145
7.33163 0.913969
7.33397 0.908096
7.33632 0.904688
7.33866 0.911581
7.34101 0.921519
7.34336 0.915403
7.3457 0.905371
7.34805 0.903899
7.35039 0.904195
7.35274 0.903753
7.35508 0.904034
7.35743 0.908898
7.35977 0.921641
7.36212 0.923735
7.36446 0.92032
7.36681 0.925249
7.36915 0.929593
7.3715 0.925292
7.37385 0.921277
7.37619 0.937804
7.37854 0.941041
7.38088 0.933678
7.38323 0.93075
7.38557 0.931084
7.38792 0.926117
7.39026 0.941013
7.39261 0.959703
7.39495 0.965425
7.3973 0.964847
7.39964 0.957077
7.40199 0.950663
7.40434 0.974398
7.40668 0.996213
7.40903 0.989834
7.41137 0.990077
7.41372 0.993881
7.41606 0.983712
7.41841 0.951737
7.42075 0.955167
7.4231 0.983996
7.42544 0.990841
7.42779 0.982132
7.43013 0.967418
7.43248 0.960739
7.43483 0.983618
7.43717 0.996191
7.43952 0.986076
7.44186 0.992371
7.44421 1.00406
7.44655 1.00713
7.4489 1.00066
7.45124 0.978438
7.45359 0.986435
7.45593 0.992516
7.45828 0.996139
7.46062 0.991708
7.46297 0.981556
7.46532 0.994713
7.46766 0.996827
7.47001 1.00489
7.47235 1.02174
7.4747 1.02806
7.47704 1.01586
7.47939 0.999717
7.48173 0.99505
7.48408 1.0168
7.48642 1.02558
7.48877 1.02443
7.49111 1.01814
7.49346 1.01618
7.4958 1.04124
7.49815 1.0315
7.5005 1.01577
7.50284 1.00417
7.50519 1.00046
7.50753 1.00424
7.50988 1.01266
7.51222 1.02218
7.51457 1.02262
7.51691 1.03604
7.51926 1.05057
7.5216 1.04921
7.52395 1.03465
7.52629 1.05295
7.52864 1.07543
7.53099 1.05542
7.53333 1.06903
7.53568 1.08533
7.53802 1.0778
7.54037 1.06688
7.54271 1.06997
7.54506 1.05621
7.5474 1.04292
7.54975 1.04604
7.55209 1.04825
7.55444 1.02954
7.55678 1.01012
7.55913 1.02797
7.56148 1.04011
7.56382 1.05265
7.56617 1.06774
7.56851 1.07087
7.57086 1.04651
7.5732 1.05301
7.57555 1.06306
7.57789 1.068
7.58024 1.04821
7.58258 1.02289
7.58493 1.02018
7.58727 1.03797
7.58962 1.02651
7.59197 1.01689
7.59431 1.01371
7.59666 1.03492
7.599 1.06099
7.60135 1.05126
7.60369 1.03471
7.60604 1.03883
7.60838 1.02209
7.61073 1.01112
7.61307 1.01081
7.61542 1.01601
7.61776 1.02455
7.62011 1.01206
7.62245 1.01789
7.6248 1.01929
7.62715 1.02208
7.62949 1.02107
7.63184 1.01065
7.63418 1.02416
7.63653 1.03173
7.63887 1.05255
7.64122 1.0666
7.64356 1.06249
7.64591 1.0501
7.64825 1.05409
7.6506 1.04334
7.65294 1.05941
7.65529 1.05867
7.65764 1.055
7.65998 1.06543
7.66233 1.08902
7.66467 1.09364
7.66702 1.0961
7.66936 1.079
7.67171 1.08656
7.67405 1.10146
7.6764 1.11178
7.67874 1.12801
7.68109 1.14362
7.68343 1.14728
7.68578 1.14032
7.68813 1.14123
7.69047 1.15157
7.69282 1.16035
7.69516 1.15568
7.69751 1.16284
7.69985 1.20039
7.7022 1.20049
7.70454 1.19385
7.70689 1.20697
7.70923 1.23775
7.71158 1.26101
7.71392 1.30344
7.71627 1.34556
7.71862 1.36236
7.72096 1.36564
7.72331 1.37272
7.72565 1.38837
7.728 1.41073
7.73034 1.47048
7.73269 1.50574
7.73503 1.52922
7.73738 1.54766
7.73972 1.56692
7.74207 1.6047
7.74441 1.65007
7.74676 1.6824
7.7491 1.70354
7.75145 1.71436
7.7538 1.73169
7.75614 1.76884
7.75849 1.78389
7.76083 1.76429
7.76318 1.79696
7.76552 1.84467
7.76787 1.85745
7.77021 1.83954
7.77256 1.85523
7.7749 1.87571
7.77725 1.87738
7.77959 1.84302
7.78194 1.80392
7.78429 1.7801
7.78663 1.78234
7.78898 1.8178
7.79132 1.78017
7.79367 1.77355
7.79601 1.76864
7.79836 1.75976
7.8007 1.75619
7.80305 1.76546
7.80539 1.76422
7.80774 1.71034
7.81008 1.68112
7.81243 1.67047
7.81478 1.66133
7.81712 1.64749
7.81947 1.6378
7.82181 1.62434
7.82416 1.58863
7.8265 1.57084
7.82885 1.53624
7.83119 1.48945
7.83354 1.45407
7.83588 1.43628
7.83823 1.39419
7.84057 1.38559
7.84292 1.36378
7.84527 1.33931
7.84761 1.31138
7.84996 1.2743
7.8523 1.25228
7.85465 1.24019
7.85699 1.23118
7.85934 1.21396
7.86168 1.19523
7.86403 1.17316
7.86637 1.14018
7.86872 1.12523
7.87106 1.11461
7.87341 1.09482
7.87575 1.08335
7.8781 1.07015
7.88045 1.05644
7.88279 1.06624
7.88514 1.0447
7.88748 1.05137
7.88983 1.04792
7.89217 1.03678
7.89452 1.03287
7.89686 1.03945
7.89921 1.03118
7.90155 1.01582
7.9039 1.02125
7.90624 1.00515
7.90859 0.991186
7.91094 0.986653
7.91328 0.978056
7.91563 0.962449
7.91797 0.966361
7.92032 0.961304
7.92266 0.946076
7.92501 0.941342
7.92735 0.942795
7.9297 0.930303
7.93204 0.948315
7.93439 0.904794
7.93673 0.909891
7.93908 0.909528
7.94143 0.902117
7.94377 0.899321
7.94612 0.900417
7.94846 0.927474
7.95081 0.934365
7.95315 0.943713
7.9555 0.937685
7.95784 0.923227
7.96019 0.917581
7.96253 0.924455
7.96488 0.910536
7.96722 0.911269
7.96957 0.928985
7.97192 0.918467
7.97426 0.896411
7.97661 0.903098
7.97895 0.924082
7.9813 0.920175
7.98364 0.899091
7.98599 0.895226
7.98833 0.907615
7.99068 0.927638
7.99302 0.946522
7.99537 0.953787
7.99771 0.907574
8.00006 0.889327
8.0024 0.900121
8.00475 0.915201
8.0071 0.913804
8.00944 0.894633
8.01179 0.878884
8.01413 0.883876
8.01648 0.897344
8.01882 0.919622
8.02117 0.930087
8.02351 0.91976
8.02586 0.904306
8.0282 0.901145
8.03055 0.923733
8.03289 0.9075
8.03524 0.891857
8.03759 0.880845
8.03993 0.881798
8.04228 0.916665
8.04462 0.884971
8.04697 0.878842
8.04931 0.884451
8.05166 0.899962
8.054 0.926081
8.05635 0.953974
8.05869 0.95775
8.06104 0.904712
8.06338 0.907212
8.06573 0.895124
8.06808 0.883659
8.07042 0.881784
8.07277 0.888968
8.07511 0.909335
8.07746 0.946496
8.0798 0.951533
8.08215 0.934799
8.08449 0.93321
8.08684 0.935503
8.08918 0.92164
8.09153 0.935116
8.09387 0.909032
8.09622 0.910413
8.09857 0.922057
8.10091 0.934354
8.10326 0.959205
8.1056 0.997998
8.10795 0.988285
8.11029 0.967118
8.11264 0.962524
8.11498 0.976237
8.11733 0.981155
8.11967 0.966031
8.12202 0.94826
8.12436 0.961938
8.12671 0.940031
8.12905 0.946129
8.1314 0.95676
8.13375 0.985878
8.13609 1.00305
8.13844 0.965055
8.14078 0.960132
8.14313 0.964865
8.14547 0.986765
8.14782 0.997918
8.15016 0.992958
8.15251 0.98228
8.15485 0.976923
8.1572 0.962236
8.15954 0.992872
8.16189 1.00131
8.16424 0.977489
8.16658 0.954224
8.16893 0.960397
8.17127 0.987348
8.17362 0.968348
8.17596 0.9793
8.17831 0.978865
8.18065 0.992165
8.183 0.996792
8.18534 0.990682
8.18769 1.00431
8.19003 1.0128
8.19238 1.0082
8.19473 1.00254
8.19707 0.993828
8.19942 0.987506
8.20176 0.98676
8.20411 0.987679
8.20645 0.983959
8.2088 0.986268
8.21114 1.0017
8.21349 1.01298
8.21583 1.01047
8.21818 0.997313
8.22052 0.986476
8.22287 0.986834
8.22522 0.994707
8.22756 1.00907
8.22991 1.00637
8.23225 0.988152
8.2346 0.974836
8.23694 0.987583
8.23929 1.0133
8.24163 1.01386
8.24398 1.0068
8.24632 1.02384
8.24867 1.04452
8.25101 1.04448
8.25336 1.0255
8.2557 1.00368
8.25805 1.0256
8.2604 1.02957
8.26274 1.01075
8.26509 0.991259
8.26743 0.986539
8.26978 0.989749
8.27212 0.985079
8.27447 0.974635
8.27681 0.994911
8.27916 0.995739
8.2815 0.987629
8.28385 0.987444
8.28619 0.990744
8.28854 0.9933
8.29089 1.00904
8.29323 0.98833
8.29558 0.990444
8.29792 0.991684
8.30027 0.976554
8.30261 0.966651
8.30496 0.963243
8.3073 0.96268
8.30965 0.970367
8.31199 0.963511
8.31434 0.966325
8.31668 0.980838
8.31903 0.980949
8.32138 0.973434
8.32372 0.994639
8.32607 0.994618
8.32841 0.969987
8.33076 0.950427
8.3331 0.960072
8.33545 0.98831
8.33779 0.974446
8.34014 0.986827
8.34248 0.983045
8.34483 0.982327
8.34717 0.969452
8.34952 0.946928
8.35187 0.929927
8.35421 0.90974
8.35656 0.917212
8.3589 0.925474
8.36125 0.935919
8.36359 0.954047
8.36594 0.968501
8.36828 0.967303
8.37063 0.964501
8.37297 0.945278
8.37532 0.915835
8.37766 0.920673
8.38001 0.931794
8.38235 0.927504
8.3847 0.916553
8.38705 0.930644
8.38939 0.927577
8.39174 0.93396
8.39408 0.93167
8.39643 0.930993
8.39877 0.935995
8.40112 0.936481
8.40346 0.919235
8.40581 0.939736
8.40815 0.946088
8.4105 0.954737
8.41284 0.944374
8.41519 0.924991
8.41754 0.914112
8.41988 0.915622
8.42223 0.940998
8.42457 0.926012
8.42692 0.921374
8.42926 0.915237
8.43161 0.912215
8.43395 0.914453
8.4363 0.917687
8.43864 0.943176
8.44099 0.933051
8.44333 0.918408
8.44568 0.928214
8.44803 0.943575
8.45037 0.94279
8.45272 0.925285
8.45506 0.909285
8.45741 0.893941
8.45975 0.914523
8.4621 0.935592
8.46444 0.943249
8.46679 0.937354
8.46913 0.928725
8.47148 0.934937
8.47382 0.934102
8.47617 0.898467
8.47852 0.914733
8.48086 0.937823
8.48321 0.945586
8.48555 0.942444
8.4879 0.924921
8.49024 0.926164
8.49259 0.929758
8.49493 0.958606
8.49728 0.964993
8.49962 0.940508
8.50197 0.918317
8.50431 0.934375
8.50666 0.930263
8.509 0.896018
8.51135 0.874668
8.5137 0.895427
8.51604 0.907261
8.51839 0.886567
8.52073 0.874588
8.52308 0.890097
8.52542 0.91612
8.52777 0.939678
8.53011 0.960707
8.53246 0.968303
8.5348 0.946874
8.53715 0.904011
8.53949 0.902614
8.54184 0.918447
8.54419 0.93678
8.54653 0.950925
8.54888 0.961441
8.55122 0.9597
8.55357 0.938498
8.55591 0.910689
8.55826 0.920925
8.5606 0.928994
8.56295 0.924268
8.56529 0.916147
8.56764 0.904399
8.56998 0.896521
8.57233 0.908826
8.57468 0.905566
8.57702 0.904829
8.57937 0.906674
8.58171 0.906338
8.58406 0.908466
8.5864 0.909031
8.58875 0.900318
8.59109 0.902122
8.59344 0.908863
8.59578 0.910706
8.59813 0.930742
8.60047 0.937747
8.60282 0.917813
8.60517 0.889304
8.60751 0.881891
8.60986 0.89465
8.6122 0.905679
8.61455 0.914383
8.61689 0.913851
8.61924 0.911593
8.62158 0.912792
8.62393 0.910723
8.62627 0.923309
8.62862 0.895641
8.63096 0.91292
8.63331 0.914456
8.63565 0.902291
8.638 0.895546
8.64035 0.898976
8.64269 0.911508
8.64504 0.917862
8.64738 0.899678
8.64973 0.898688
8.65207 0.913082
8.65442 0.929414
8.65676 0.931684
8.65911 0.907608
8.66145 0.919088
8.6638 0.92568
8.66614 0.908149
8.66849 0.880616
8.67084 0.871337
8.67318 0.886381
8.67553 0.900676
8.67787 0.915618
8.68022 0.921515
8.68256 0.929809
8.68491 0.943075
8.68725 0.945008
8.6896 0.935022
8.69194 0.928547
8.69429 0.927446
8.69663 0.927756
8.69898 0.923726
8.70133 0.903562
8.70367 0.886688
8.70602 0.892924
8.70836 0.917465
8.71071 0.926438
8.71305 0.912702
8.7154 0.946691
8.71774 0.97096
8.72009 0.970134
8.72243 0.951862
8.72478 0.930226
8.72712 0.917794
8.72947 0.929277
8.73182 0.913733
8.73416 0.886217
8.73651 0.88774
8.73885 0.913396
8.7412 0.941131
8.74354 0.94681
8.74589 0.922686
8.74823 0.958086
8.75058 0.948964
8.75292 0.950521
8.75527 0.947234
8.75761 0.939275
8.75996 0.937263
8.76231 0.941449
8.76465 0.918607
8.767 0.913659
8.76934 0.906792
8.77169 0.902016
8.77403 0.902236
8.77638 0.912297
8.77872 0.927626
8.78107 0.923972
8.78341 0.891621
8.78576 0.887377
8.7881 0.918173
8.79045 0.90932
8.79279 0.898226
8.79514 0.910156
8.79749 0.913006
8.79983 0.983662
8.80218 0.968355
8.80452 0.962039
8.80687 0.911584
8.80921 0.892131
8.81156 0.911062
8.8139 0.924123
8.81625 0.937479
8.81859 0.904589
8.82094 0.923535
8.82328 0.946227
8.82563 0.963189
8.82798 0.961652
8.83032 0.947369
8.83267 0.944484
8.83501 0.953408
8.83736 0.937938
8.8397 0.932086
8.84205 0.925279
8.84439 0.933556
8.84674 0.951516
8.84908 0.964098
8.85143 0.974715
8.85377 0.981189
8.85612 0.961062
8.85847 0.972249
8.86081 0.969074
8.86316 0.950107
8.8655 0.93527
8.86785 0.934128
8.87019 0.931088
8.87254 0.927797
8.87488 0.946935
8.87723 0.959934
8.87957 0.972503
8.88192 0.975635
8.88426 0.97028
8.88661 0.982764
8.88896 0.986198
8.8913 0.974079
8.89365 0.977805
8.89599 0.958667
8.89834 0.957706
8.90068 0.977653
8.90303 0.978934
8.90537 0.967199
8.90772 0.991391
8.91006 0.985996
8.91241 0.966278
8.91475 0.981241
8.9171 1.00466
8.91944 1.00822
8.92179 1.01004
8.92414 1.01677
8.92648 1.00669
8.92883 1.00802
8.93117 0.992039
8.93352 0.995573
8.93586 1.02377
8.93821 1.04678
8.94055 1.04361
8.9429 1.04581
8.94524 1.05753
8.94759 1.07308
8.94993 1.08534
8.95228 1.09836
8.95463 1.11173
8.95697 1.11165
8.95932 1.08088
8.96166 1.10889
8.96401 1.08489
8.96635 1.08763
8.9687 1.10868
8.97104 1.12454
8.97339 1.12983
8.97573 1.13248
8.97808 1.10159
8.98042 1.13531
8.98277 1.16632
8.98512 1.15605
8.98746 1.13247
8.98981 1.11767
8.99215 1.11038
8.9945 1.10168
8.99684 1.11057
8.99919 1.10612
9.00153 1.1397
9.00388 1.14075
9.00622 1.13173
9.00857 1.11845
9.01091 1.09533
9.01326 1.11742
9.01561 1.1309
9.01795 1.10654
9.0203 1.08831
9.02264 1.08665
9.02499 1.09848
9.02733 1.1118
9.02968 1.11545
9.03202 1.11308
9.03437 1.10142
9.03671 1.10049
9.03906 1.0724
9.0414 1.04219
9.04375 1.03459
9.04609 1.04735
9.04844 1.05551
9.05079 1.05142
9.05313 1.01273
9.05548 0.99131
9.05782 0.98004
9.06017 0.968245
9.06251 0.95831
9.06486 0.968005
9.0672 1.00636
9.06955 0.990739
9.07189 0.976944
9.07424 0.986017
9.07658 0.988667
9.07893 0.973302
9.08128 0.956191
9.08362 0.953478
9.08597 0.950133
9.08831 0.958871
9.09066 0.945496
9.093 0.93932
9.09535 0.945585
9.09769 0.944632
9.10004 0.943301
9.10238 0.955305
9.10473 0.940487
9.10707 0.957725
9.10942 0.979271
9.11177 0.992076
9.11411 0.961765
9.11646 0.92906
9.1188 0.930141
9.12115 0.946381
9.12349 0.935689
9.12584 0.913217
9.12818 0.913722
9.13053 0.9151
9.13287 0.923485
9.13522 0.933133
9.13756 0.933401
9.13991 0.923412
9.14226 0.918707
9.1446 0.931687
9.14695 0.907639
9.14929 0.889668
9.15164 0.890973
9.15398 0.895308
9.15633 0.888825
9.15867 0.884863
9.16102 0.912608
9.16336 0.924254
9.16571 0.917613
9.16805 0.880079
9.1704 0.867155
9.17274 0.901415
9.17509 0.948339
9.17744 0.952658
9.17978 0.926819
9.18213 0.904008
9.18447 0.923466
9.18682 0.925496
9.18916 0.92469
9.19151 0.938664
9.19385 0.953164
9.1962 0.933166
9.19854 0.894313
9.20089 0.913243
9.20323 0.928519
9.20558 0.91917
9.20793 0.92018
9.21027 0.921512
9.21262 0.907349
9.21496 0.90563
9.21731 0.881486
9.21965 0.895635
9.222 0.875559
9.22434 0.877729
9.22669 0.877446
9.22903 0.880122
9.23138 0.914447
9.23372 0.969432
9.23607 0.961848
9.23842 0.922205
9.24076 0.902366
9.24311 0.949087
9.24545 0.950463
9.2478 0.933335
9.25014 0.956442
9.25249 0.945633
9.25483 0.956995
9.25718 0.961082
9.25952 0.950436
9.26187 0.926313
9.26421 0.909106
9.26656 0.911828
9.26891 0.92195
9.27125 0.916278
9.2736 0.939931
9.27594 0.979747
9.27829 0.974066
9.28063 0.953104
9.28298 0.948764
9.28532 0.953997
9.28767 0.944209
9.29001 0.921832
9.29236 0.941856
9.2947 0.948745
9.29705 0.960816
9.29939 0.980548
9.30174 0.959556
9.30409 0.920281
9.30643 0.906756
9.30878 0.910817
9.31112 0.90277
9.31347 0.917437
9.31581 0.927353
9.31816 0.939947
9.3205 0.949878
9.32285 0.946603
9.32519 0.930454
9.32754 0.917156
9.32988 0.917931
9.33223 0.915618
9.33458 0.938712
9.33692 0.932627
9.33927 0.900084
9.34161 0.877208
9.34396 0.89032
9.3463 0.927217
9.34865 0.945372
9.35099 0.936673
9.35334 0.93612
9.35568 0.915924
9.35803 0.914035
9.36037 0.911542
9.36272 0.904005
9.36507 0.916856
9.36741 0.926396
9.36976 0.918812
9.3721 0.905525
9.37445 0.926793
9.37679 0.919153
9.37914 0.89838
9.38148 0.898683
9.38383 0.914448
9.38617 0.905599
9.38852 0.913501
9.39086 0.909943
9.39321 0.924465
9.39556 0.926793
9.3979 0.910793
9.40025 0.900886
9.40259 0.910227
9.40494 0.912563
9.40728 0.938472
9.40963 0.941831
9.41197 0.932837
9.41432 0.929116
9.41666 0.93572
9.41901 0.942637
9.42135 0.943498
9.4237 0.94921
9.42604 0.969559
9.42839 0.944409
9.43074 0.9226
9.43308 0.916791
9.43543 0.920757
9.43777 0.930867
9.44012 0.944528
9.44246 0.952538
9.44481 0.938719
9.44715 0.927708
9.4495 0.959048
9.45184 0.982029
9.45419 0.976726
9.45653 0.966309
9.45888 0.966994
9.46123 0.957063
9.46357 0.9003
9.46592 0.870985
9.46826 0.921603
9.47061 0.943195
9.47295 0.964766
9.4753 0.971307
9.47764 0.975354
9.47999 0.988625
9.48233 0.977388
9.48468 0.993014
9.48702 1.01075
9.48937 1.00479
9.49172 0.977963
9.49406 0.953908
9.49641 0.95794
9.49875 0.974426
9.5011 0.963141
9.50344 0.966317
9.50579 0.994688
9.50813 0.987865
9.51048 0.995653
9.51282 1.01606
9.51517 1.02465
9.51751 1.01843
9.51986 1.01288
9.52221 1.00451
9.52455 1.02454
9.5269 0.990447
9.52924 0.979346
9.53159 0.995491
9.53393 1.0128
9.53628 1.00666
9.53862 0.997352
9.54097 1.0332
9.54331 1.03024
9.54566 1.03332
9.548 1.0183
9.55035 1.00086
9.55269 0.996187
9.55504 0.985407
9.55739 0.960057
9.55973 0.950357
9.56208 0.987431
9.56442 1.00336
9.56677 1.0444
9.56911 1.03756
9.57146 1.02852
9.5738 1.02034
9.57615 1.00688
9.57849 0.990425
9.58084 0.970225
9.58318 0.946229
9.58553 0.976506
9.58788 0.9846
9.59022 0.97577
9.59257 0.972623
9.59491 0.970046
9.59726 0.962528
9.5996 0.971238
9.60195 1.01656
9.60429 1.00236
9.60664 0.974746
9.60898 0.974758
9.61133 0.960374
9.61367 0.92981
9.61602 0.901338
9.61837 0.895068
9.62071 0.920206
9.62306 0.912411
9.6254 0.945217
9.62775 0.986458
9.63009 0.968226
9.63244 0.957036
9.63478 0.948801
9.63713 0.934252
9.63947 0.944738
9.64182 0.935448
9.64416 0.965386
9.64651 0.955884
9.64886 0.963045
9.6512 0.959638
9.65355 0.945197
9.65589 0.937236
9.65824 0.941732
9.66058 0.942335
9.66293 0.94301
9.66527 0.957415
9.66762 0.974575
9.66996 0.965152
9.67231 0.951838
9.67465 0.944476
9.677 0.943764
9.67934 0.947078
9.68169 0.938081
9.68404 0.937738
9.68638 0.976745
9.68873 0.984062
9.69107 0.98885
9.69342 0.973899
9.69576 0.957616
9.69811 0.969518
9.70045 0.994187
9.7028 1.00055
9.70514 0.981858
9.70749 0.973189
9.70983 0.975139
9.71218 0.988055
9.71453 0.992966
9.71687 0.986948
9.71922 0.980569
9.72156 0.971227
9.72391 0.981707
9.72625 0.985891
9.7286 0.967526
9.73094 0.951109
9.73329 0.968561
9.73563 0.993167
9.73798 0.989776
9.74032 0.969382
9.74267 0.975917
9.74502 1.00213
9.74736 1.0241
9.74971 0.99819
9.75205 0.975093
9.7544 0.974031
9.75674 0.994887
9.75909 1.01472
9.76143 1.00524
9.76378 0.999513
9.76612 0.995008
9.76847 0.990793
9.77081 0.971371
9.77316 0.95316
9.77551 0.939207
9.77785 0.942145
9.7802 0.964531
9.78254 0.98022
9.78489 1.01379
9.78723 1.0083
9.78958 1.00165
9.79192 1.02111
9.79427 1.03303
9.79661 1.03546
9.79896 1.02356
9.8013 0.998351
9.80365 1.00641
9.80599 1.02393
9.80834 1.01479
9.81069 1.02637
9.81303 1.03058
9.81538 1.03269
9.81772 1.0182
9.82007 1.00295
9.82241 1.01598
9.82476 1.0053
9.8271 0.973648
9.82945 0.996935
9.83179 1.0023
9.83414 1.01558
9.83648 1.03508
9.83883 1.04007
9.84118 1.0272
9.84352 1.01178
9.84587 0.983962
9.84821 0.975748
9.85056 1.00246
9.8529 1.03369
9.85525 1.05111
9.85759 1.04841
9.85994 1.03001
9.86228 1.01035
9.86463 0.997259
9.86697 0.97026
9.86932 1.03808
9.87167 1.04658
9.87401 1.02548
9.87636 0.9957
9.8787 0.988884
9.88105 0.999503
9.88339 1.00838
9.88574 1.01506
9.88808 1.01021
9.89043 1.0294
9.89277 1.00912
9.89512 1.00914
9.89746 1.05717
9.89981 1.07623
9.90216 1.04946
9.9045 1.01785
9.90685 1.00212
9.90919 1.01819
9.91154 1.03682
9.91388 1.04835
9.91623 1.04302
9.91857 1.02849
9.92092 1.01295
9.92326 1.00717
9.92561 1.0107
9.92795 1.00874
9.9303 1.00515
9.93264 1.02084
9.93499 0.987422
9.93734 1.02488
9.93968 1.0351
9.94203 1.02478
9.94437 1.02431
9.94672 1.03883
9.94906 1.05766
9.95141 1.06561
9.95375 1.04008
9.9561 1.01924
9.95844 1.05031
9.96079 1.10428
9.96313 1.11021
9.96548 1.07758
9.96783 1.05711
9.97017 1.06368
9.97252 1.09785
9.97486 1.09719
9.97721 1.11508
9.97955 1.15296
9.9819 1.1379
9.98424 1.10146
9.98659 1.08172
9.98893 1.0807
9.99128 1.08791
9.99362 1.11678
9.99597 1.15346
9.99832 1.16077
10.0007 1.13871
10.003 1.10074
10.0054 1.11292
10.0077 1.13453
10.01 1.12123
10.0124 1.11047
10.0147 1.12879
10.0171 1.11417
10.0194 1.11359
10.0218 1.10182
10.0241 1.11388
10.0265 1.10141
10.0288 1.09156
10.0312 1.10594
10.0335 1.12463
10.0358 1.15034
10.0382 1.13693
10.0405 1.15959
10.0429 1.13306
10.0452 1.09672
10.0476 1.09307
10.0499 1.09476
10.0523 1.09799
10.0546 1.1193
10.0569 1.13349
10.0593 1.14609
10.0616 1.10855
10.064 1.10603
10.0663 1.11167
10.0687 1.11928
10.071 1.11024
10.0734 1.09776
10.0757 1.10992
10.0781 1.14116
10.0804 1.14631
10.0827 1.10964
10.0851 1.07096
10.0874 1.07326
10.0898 1.08007
10.0921 1.10615
10.0945 1.13014
10.0968 1.1338
10.0992 1.11856
10.1015 1.05734
10.1039 1.05802
10.1062 1.04664
10.1085 1.06574
10.1109 1.09021
10.1132 1.089
10.1156 1.08706
10.1179 1.07827
10.1203 1.03853
10.1226 1.01023
10.125 1.02817
10.1273 1.04037
10.1297 1.03531
10.132 1.02584
10.1343 1.04101
10.1367 1.06422
10.139 1.07311
10.1414 1.06649
10.1437 1.05876
10.1461 1.05604
10.1484 1.03142
10.1508 0.982009
10.1531 1.01529
10.1555 1.04206
10.1578 1.04245
10.1601 1.04534
10.1625 1.05374
10.1648 1.0445
10.1672 1.03106
10.1695 1.03092
10.1719 1.02558
10.1742 1.01642
10.1766 0.993518
10.1789 0.99848
10.1813 1.0298
10.1836 1.05228
10.1859 1.05143
10.1883 1.043
10.1906 1.00568
10.193 0.985028
10.1953 0.99884
10.1977 0.989478
10.2 0.971675
10.2024 0.97732
10.2047 0.986005
10.2071 0.986261
10.2094 0.99245
10.2117 0.989809
10.2141 0.974721
10.2164 1.00001
10.2188 1.00844
10.2211 0.971583
10.2235 0.95319
10.2258 0.967784
10.2282 1.0042
10.2305 1.02893
10.2329 1.01534
10.2352 1.01583
10.2375 0.993892
10.2399 0.994404
10.2422 1.01215
10.2446 1.02667
10.2469 1.01948
10.2493 0.99072
10.2516 0.977081
10.254 0.99817
10.2563 1.0099
10.2587 1.00506
10.261 1.0306
10.2633 1.01084
10.2657 1.00021
10.268 0.977118
10.2704 0.969174
10.2727 1.00065
10.2751 1.03876
10.2774 1.04896
10.2798 1.07788
10.2821 1.06815
10.2845 1.02353
10.2868 1.04862
10.2891 1.04519
10.2915 1.05509
10.2938 1.04339
10.2962 1.01431
10.2985 1.00677
10.3009 1.01335
10.3032 0.997848
10.3056 1.05136
10.3079 1.035
10.3102 1.00537
10.3126 1.00194
10.3149 0.995785
10.3173 0.980565
10.3196 0.985171
10.322 1.01218
10.3243 1.01954
10.3267 1.02484
10.329 1.03723
10.3314 0.989168
10.3337 1.00163
10.336 1.01908
10.3384 0.996315
10.3407 0.969902
10.3431 0.968193
10.3454 0.967449
10.3478 0.952209
10.3501 0.970973
10.3525 0.979724
10.3548 0.971717
10.3572 0.96925
10.3595 0.98779
10.3618 1.01166
10.3642 1.03081
10.3665 1.02981
10.3689 1.00931
10.3712 1.0021
10.3736 0.96488
10.3759 0.953313
10.3783 0.974019
10.3806 0.97703
10.383 0.961018
10.3853 0.999313
10.3876 1.04699
10.39 1.05827
10.3923 1.05817
10.3947 1.04817
10.397 1.04105
10.3994 1.04211
10.4017 1.04213
10.4041 0.998314
10.4064 1.0029
10.4088 1.01307
10.4111 1.0044
10.4134 0.992019
10.4158 0.984814
10.4181 0.97424
10.4205 0.953937
10.4228 0.988996
10.4252 1.03073
10.4275 1.0255
10.4299 1.02877
10.4322 1.02557
10.4346 1.00998
10.4369 1.00519
10.4392 1.01538
10.4416 1.00642
10.4439 1.00542
10.4463 0.994433
10.4486 0.991586
10.451 0.99644
10.4533 1.01173
10.4557 1.00767
10.458 0.996304
10.4604 1.00955
10.4627 1.03126
10.465 1.00936
10.4674 1.00569
10.4697 1.02678
10.4721 1.08222
10.4744 1.0596
10.4768 1.0255
10.4791 1.00602
10.4815 0.990237
10.4838 0.985351
10.4862 1.0095
10.4885 1.04715
10.4908 1.06483
10.4932 1.04805
10.4955 1.07056
10.4979 1.06771
10.5002 1.03771
10.5026 1.03398
10.5049 1.05581
10.5073 1.05901
10.5096 1.03069
10.512 1.01528
10.5143 1.02981
10.5166 0.976669
10.519 0.960899
10.5213 1.00592
10.5237 1.00145
10.526 0.965879
10.5284 0.94493
10.5307 0.952127
10.5331 0.980891
10.5354 1.01825
10.5378 1.03756
10.5401 1.06052
10.5424 1.01664
10.5448 1.00656
10.5471 0.961008
10.5495 0.977491
10.5518 1.02057
10.5542 1.03616
10.5565 1.0339
10.5589 1.04698
10.5612 1.05883
10.5635 1.04113
10.5659 1.01015
10.5682 1.01572
10.5706 0.969766
10.5729 0.985893
10.5753 0.991477
10.5776 0.964988
10.58 0.957045
10.5823 0.983102
10.5847 0.99341
10.587 0.986617
10.5893 0.985316
10.5917 1.01511
10.594 1.04108
10.5964 1.05608
10.5987 1.03252
10.6011 0.993579
10.6034 0.991465
10.6058 1.02985
10.6081 1.05013
10.6105 1.01665
10.6128 0.992749
10.6151 1.04419
10.6175 1.03653
10.6198 0.990586
10.6222 0.951362
10.6245 0.968291
10.6269 1.01946
10.6292 1.02603
10.6316 0.978157
10.6339 0.958077
10.6363 0.967247
10.6386 0.992344
10.6409 1.00048
10.6433 1.0011
10.6456 0.988272
10.648 0.995715
10.6503 1.01197
10.6527 1.01745
10.655 1.00984
10.6574 1.00121
10.6597 1.00262
10.6621 1.0115
10.6644 1.0106
10.6667 1.00275
10.6691 0.98091
10.6714 0.983928
10.6738 1.02396
10.6761 1.02255
10.6785 0.989273
10.6808 0.972371
10.6832 0.957488
10.6855 0.936995
10.6879 0.952409
10.6902 0.99911
10.6925 1.00144
10.6949 0.99058
10.6972 0.98158
10.6996 0.986637
10.7019 0.97018
10.7043 0.943261
10.7066 0.94922
10.709 0.971819
10.7113 0.954842
10.7137 0.949422
10.716 0.997564
10.7183 1.01586
10.7207 0.968559
10.723 0.936238
10.7254 0.941907
10.7277 0.965631
10.7301 0.979215
10.7324 0.973277
10.7348 0.973117
10.7371 1.01763
10.7395 1.03129
10.7418 1.02115
10.7441 0.986876
10.7465 0.964491
10.7488 0.96938
10.7512 0.985837
10.7535 0.994252
10.7559 0.995687
10.7582 0.987101
10.7606 0.957819
10.7629 0.961681
10.7653 0.958226
10.7676 0.928619
10.7699 0.914309
10.7723 0.943135
10.7746 0.965167
10.777 0.985843
10.7793 1.00023
10.7817 0.986325
10.784 0.954349
10.7864 0.949574
10.7887 0.965586
10.7911 0.9458
10.7934 1.00005
10.7957 1.02278
10.7981 1.01374
10.8004 0.98344
10.8028 0.958193
10.8051 0.966526
10.8075 0.990468
10.8098 0.992687
10.8122 0.981403
10.8145 0.976981
10.8168 0.958554
10.8192 1.01923
10.8215 1.02222
10.8239 1.01965
10.8262 1.00187
10.8286 0.967947
10.8309 0.950589
10.8333 0.962267
10.8356 0.969248
10.838 0.959517
10.8403 1.00165
10.8426 1.0198
10.845 0.986856
10.8473 0.993533
10.8497 0.980048
10.852 0.951571
10.8544 0.969253
10.8567 0.979542
10.8591 0.993247
10.8614 1.02495
10.8638 1.00681
10.8661 0.988752
10.8684 0.978474
10.8708 1.00269
10.8731 0.994247
10.8755 0.984196
10.8778 0.992652
10.8802 0.98152
10.8825 0.98357
10.8849 1.01878
10.8872 1.03429
10.8896 0.986583
10.8919 0.939447
10.8942 0.959915
10.8966 1.03943
10.8989 1.04006
10.9013 1.03213
10.9036 1.02097
10.906 1.00688
10.9083 0.956252
10.9107 0.945291
10.913 0.983578
10.9154 0.997689
10.9177 1.00584
10.92 1.02853
10.9224 0.985635
10.9247 0.997599
10.9271 1.02473
10.9294 0.988111
10.9318 1.00574
10.9341 1.0268
10.9365 0.998546
10.9388 0.972419
10.9412 1.00201
10.9435 1.03363
10.9458 1.00435
10.9482 1.02902
10.9505 1.07003
10.9529 1.03784
10.9552 1.02381
10.9576 1.00634
10.9599 1.02093
10.9623 1.0371
10.9646 1.04968
10.967 1.03195
10.9693 0.983424
10.9716 0.97842
10.974 0.981999
10.9763 0.998214
10.9787 0.990043
10.981 1.0695
10.9834 1.08618
10.9857 1.06197
10.9881 1.03122
10.9904 1.02713
10.9928 1.03762
10.9951 1.04607
10.9974 1.06759
10.9998 1.09363
11.0021 1.06238
11.0045 1.08578
11.0068 1.12643
11.0092 1.13017
11.0115 1.1158
11.0139 1.1169
11.0162 1.09773
11.0186 1.06498
11.0209 1.04146
11.0232 1.02251
11.0256 0.993692
11.0279 0.974186
11.0303 1.01406
11.0326 1.0293
11.035 1.04624
11.0373 1.05937
11.0397 1.08416
11.042 1.09229
11.0444 1.067
11.0467 1.02116
11.049 0.982338
11.0514 0.971738
11.0537 0.98197
11.0561 0.982335
11.0584 1.00357
11.0608 1.06188
11.0631 1.05688
11.0655 1.05149
11.0678 1.0245
11.0701 1.02778
11.0725 1.04014
11.0748 1.03359
11.0772 1.01657
11.0795 1.01464
11.0819 1.03053
11.0842 1.03682
11.0866 1.0316
11.0889 1.02238
11.0913 1.01229
11.0936 0.988262
11.0959 1.02342
11.0983 1.01914
11.1006 1.01055
11.103 1.01741
11.1053 1.03258
11.1077 1.04439
11.11 1.03001
11.1124 0.993261
11.1147 0.995561
11.1171 1.02454
11.1194 0.999425
11.1217 1.00988
11.1241 1.03511
11.1264 1.04543
11.1288 1.04726
11.1311 1.02716
11.1335 1.00738
11.1358 1.01779
11.1382 1.03217
11.1405 1.02305
11.1429 1.04291
11.1452 1.00581
11.1475 0.982882
11.1499 1.01393
11.1522 1.04045
11.1546 1.01989
11.1569 1.02196
11.1593 1.02971
11.1616 1.01178
11.164 0.998684
11.1663 0.999454
11.1687 0.957127
11.171 0.923912
11.1733 0.991906
11.1757 0.934083
11.178 0.95263
11.1804 1.02286
11.1827 1.04051
11.1851 1.02877
11.1874 1.03212
11.1898 1.02775
11.1921 1.01917
11.1945 1.03237
11.1968 1.03535
11.1991 1.00685
11.2015 1.02389
11.2038 1.03568
11.2062 1.0364
11.2085 1.02011
11.2109 1.00404
11.2132 0.999193
11.2156 0.982443
11.2179 0.973032
11.2203 0.998009
11.2226 1.03768
11.2249 1.03448
11.2273 0.981259
11.2296 0.983237
11.232 1.03731
11.2343 0.984555
11.2367 1.00802
11.239 0.975246
11.2414 1.00613
11.2437 1.05363
11.2461 1.05464
11.2484 1.03389
11.2507 1.03207
11.2531 1.04712
11.2554 1.05
11.2578 1.01986
11.2601 0.98966
11.2625 1.02852
11.2648 1.03867
11.2672 1.034
11.2695 1.02806
11.2719 1.00882
11.2742 0.995656
11.2765 1.01934
11.2789 1.02991
11.2812 1.01828
11.2836 1.02731
11.2859 1.03418
11.2883 1.00875
11.2906 1.05305
11.293 1.04697
11.2953 0.988166
11.2977 0.993343
11.3 0.996185
11.3023 1.0307
11.3047 1.03178
11.307 1.00745
11.3094 1.00674
11.3117 1.03519
11.3141 1.06698
11.3164 1.07892
11.3188 1.04787
11.3211 1.03511
11.3234 1.04317
11.3258 1.02984
11.3281 1.03389
11.3305 1.03259
11.3328 1.01754
11.3352 1.01433
11.3375 1.02375
11.3399 1.03179
11.3422 1.01238
11.3446 0.999455
11.3469 1.0452
11.3492 1.07107
11.3516 1.06979
11.3539 1.06194
11.3563 1.0124
11.3586 0.979317
11.361 1.00696
11.3633 1.0097
11.3657 0.982485
11.368 0.968779
11.3704 0.955936
11.3727 0.954663
11.375 0.974486
11.3774 0.990944
11.3797 1.03329
11.3821 1.10973
11.3844 1.08666
11.3868 1.03268
11.3891 1.0351
11.3915 1.03742
11.3938 1.04927
11.3962 1.02797
11.3985 1.0198
11.4008 1.01665
11.4032 1.03801
11.4055 1.05966
11.4079 1.04842
11.4102 1.05215
11.4126 1.02639
11.4149 1.03718
11.4173 1.06047
11.4196 1.07234
11.422 1.06223
11.4243 1.00314
11.4266 0.998298
11.429 1.03899
11.4313 1.06613
11.4337 1.04215
11.436 1.00429
11.4384 1.00736
11.4407 1.034
11.4431 1.02695
11.4454 0.997865
11.4478 0.986266
11.4501 0.978606
11.4524 1.01896
11.4548 1.04134
11.4571 1.04284
11.4595 1.02674
11.4618 1.00787
11.4642 1.00918
11.4665 1.02657
11.4689 1.02928
11.4712 1.00612
11.4736 0.988281
11.4759 1.00091
11.4782 1.01401
11.4806 1.01334
11.4829 1.05397
11.4853 1.07872
11.4876 1.07211
11.49 1.05627
11.4923 1.04812
11.4947 1.02749
11.497 1.01794
11.4994 1.00708
11.5017 0.984188
11.504 0.981978
11.5064 0.99443
11.5087 0.971163
11.5111 0.978492
11.5134 0.977259
11.5158 0.941654
11.5181 0.957913
11.5205 0.971085
11.5228 0.95293
11.5252 0.964144
11.5275 0.991979
11.5298 1.00917
11.5322 1.02037
11.5345 1.00883
11.5369 0.971148
11.5392 0.965775
11.5416 1.0045
11.5439 1.02266
11.5463 1.00183
11.5486 0.994481
11.551 1.01642
11.5533 0.99268
11.5556 0.986738
11.558 0.977326
11.5603 0.992931
11.5627 1.02495
11.565 1.02491
11.5674 1.01077
11.5697 1.01964
11.5721 1.02014
11.5744 1.00283
11.5767 1.01737
11.5791 0.977536
11.5814 0.983043
11.5838 0.987127
11.5861 0.985419
11.5885 1.00134
11.5908 1.00604
11.5932 1.01562
11.5955 0.968549
11.5979 0.978484
11.6002 1.01058
11.6025 1.00588
11.6049 1.02394
11.6072 1.05182
11.6096 1.09098
11.6119 1.07039
11.6143 1.01321
11.6166 0.963343
11.619 0.969285
11.6213 1.02716
11.6237 1.00758
11.626 0.997997
11.6283 0.994323
11.6307 0.977476
11.633 0.996666
11.6354 1.03691
11.6377 1.03944
11.6401 1.0109
11.6424 0.983838
11.6448 0.971728
11.6471 0.945768
11.6495 0.951051
11.6518 1.00855
11.6541 1.02843
11.6565 0.949316
11.6588 0.995918
11.6612 1.02628
11.6635 1.00846
11.6659 1.00348
11.6682 1.0233
11.6706 1.01699
11.6729 1.00594
11.6753 1.0321
11.6776 1.02307
11.6799 1.00804
11.6823 1.00823
11.6846 0.94622
11.687 0.967961
11.6893 0.976573
11.6917 1.03906
11.694 1.04782
11.6964 1.00104
11.6987 0.983906
11.7011 0.964648
11.7034 0.945319
11.7057 0.955652
11.7081 1.00171
11.7104 1.04861
11.7128 1.04922
11.7151 1.05666
11.7175 1.04381
11.7198 0.97085
11.7222 0.99671
11.7245 0.972903
11.7269 0.997328
11.7292 1.01425
11.7315 0.978616
11.7339 0.995886
11.7362 1.0224
11.7386 1.02551
11.7409 1.02302
11.7433 1.035
11.7456 1.05373
11.748 1.05389
11.7503 1.04811
11.7527 1.06171
11.755 1.07163
11.7573 1.01417
11.7597 1.07793
11.762 1.08633
11.7644 1.07328
11.7667 1.06451
11.7691 1.03338
11.7714 1.04779
11.7738 1.0754
11.7761 1.07532
11.7785 1.06383
11.7808 1.09386
11.7831 1.14462
11.7855 1.1312
11.7878 1.12064
11.7902 1.1148
11.7925 1.05131
11.7949 1.06007
11.7972 1.09931
11.7996 1.07475
11.8019 1.06024
11.8043 1.06478
11.8066 1.05599
11.8089 1.07538
11.8113 1.09396
11.8136 1.08692
11.816 1.10298
11.8183 1.13711
11.8207 1.13491
11.823 1.14139
11.8254 1.17313
11.8277 1.13534
11.83 1.1085
11.8324 1.13577
11.8347 1.10636
11.8371 1.07268
11.8394 1.0897
11.8418 1.09995
11.8441 1.11091
11.8465 1.16221
11.8488 1.18626
11.8512 1.17744
11.8535 1.16685
11.8558 1.14515
11.8582 1.1282
11.8605 1.1572
11.8629 1.1804
11.8652 1.14388
11.8676 1.13345
11.8699 1.15581
11.8723 1.13382
11.8746 1.15627
11.877 1.19777
11.8793 1.20653
11.8816 1.17745
11.884 1.15206
11.8863 1.16373
11.8887 1.19188
11.891 1.19218
11.8934 1.16957
11.8957 1.14527
11.8981 1.12172
11.9004 1.12203
11.9028 1.14434
11.9051 1.17478
11.9074 1.17467
11.9098 1.16202
11.9121 1.12603
11.9145 1.09338
11.9168 1.12232
11.9192 1.15193
11.9215 1.11599
11.9239 1.09636
11.9262 1.14905
11.9286 1.16915
11.9309 1.14152
11.9332 1.11701
11.9356 1.08457
11.9379 1.05267
11.9403 1.05035
11.9426 1.03791
11.945 1.03938
11.9473 1.04929
11.9497 1.11084
11.952 1.16934
11.9544 1.10518
11.9567 1.06906
11.959 1.0676
11.9614 1.06857
11.9637 1.08213
11.9661 1.06735
11.9684 1.07078
11.9708 1.06121
11.9731 1.05391
11.9755 1.05347
11.9778 1.00469
11.9802 0.991098
11.9825 1.01538
11.9848 1.03781
11.9872 1.05769
11.9895 1.08296
11.9919 1.01213
11.9942 1.04151
11.9966 1.05303
11.9989 1.01819
12.0013 1.00308
12.0036 0.985815
12.006 0.963108
12.0083 0.972122
12.0106 1.00792
12.013 1.00921
12.0153 0.972162
12.0177 0.969596
12.02 0.99715
12.0224 0.979099
12.0247 0.976446
12.0271 0.995982
12.0294 0.998889
12.0318 1.06426
12.0341 1.07552
12.0364 1.01343
12.0388 0.983397
12.0411 1.02761
12.0435 1.05803
12.0458 1.05529
12.0482 1.02882
12.0505 0.980601
12.0529 0.953752
12.0552 0.972868
12.0576 1.01106
12.0599 1.03839
12.0622 1.03007
12.0646 0.981197
12.0669 0.956054
12.0693 0.949923
12.0716 0.989931
12.074 0.971519
12.0763 0.935337
12.0787 0.965946
12.081 0.98179
12.0833 0.995392
12.0857 1.01315
12.088 1.02235
12.0904 1.0358
12.0927 1.02945
12.0951 1.01226
12.0974 0.987387
12.0998 0.980649
12.1021 1.00085
12.1045 1.01361
12.1068 1.02312
12.1091 1.03058
12.1115 1.00734
12.1138 0.968402
12.1162 0.938806
12.1185 0.964148
12.1209 0.922834
12.1232 0.88355
12.1256 0.903561
12.1279 0.972738
12.1303 0.985627
12.1326 0.979485
12.1349 0.993233
12.1373 1.00663
12.1396 0.986177
12.142 0.944672
12.1443 0.907652
12.1467 0.904929
12.149 0.939161
12.1514 0.96397
12.1537 0.970027
12.1561 0.95179
12.1584 0.955348
12.1607 0.869448
12.1631 0.880449
12.1654 0.90804
12.1678 0.908783
12.1701 0.89305
12.1725 0.850679
12.1748 0.828384
12.1772 0.871916
12.1795 0.895341
12.1819 0.897415
12.1842 0.921646
12.1865 0.953698
12.1889 0.974184
12.1912 0.983105
12.1936 0.974876
12.1959 0.938662
12.1983 0.905161
12.2006 0.93617
12.203 0.921222
12.2053 0.91797
12.2077 0.928342
12.21 0.943542
12.2123 0.950816
12.2147 0.953349
12.217 0.942275
12.2194 0.948373
12.2217 0.908163
12.2241 0.906493
12.2264 0.924534
12.2288 0.871612
12.2311 0.821222
12.2335 0.843465
12.2358 0.924691
12.2381 0.987652
12.2405 0.992548
12.2428 0.9662
12.2452 0.921105
12.2475 0.916697
12.2499 0.946304
12.2522 0.936089
12.2546 0.89988
12.2569 0.950604
12.2593 0.935505
12.2616 0.910609
12.2639 0.911457
12.2663 0.910433
12.2686 0.971787
12.271 0.999345
12.2733 0.939597
12.2757 0.912176
12.278 0.908272
12.2804 0.928677
12.2827 0.956084
12.2851 0.962543
12.2874 0.958912
12.2897 0.967557
12.2921 0.966891
12.2944 0.927747
12.2968 0.924306
12.2991 0.969847
12.3015 0.982778
12.3038 0.950715
12.3062 0.94633
12.3085 0.938273
12.3109 0.942913
12.3132 0.957553
12.3155 0.939742
12.3179 0.914132
12.3202 0.969818
12.3226 0.958996
12.3249 0.928684
12.3273 0.929938
12.3296 0.928017
12.332 0.955952
12.3343 0.938128
12.3366 0.875174
12.339 0.867944
12.3413 0.894404
12.3437 0.9142
12.346 0.948583
12.3484 1.02177
12.3507 0.984029
12.3531 0.918468
12.3554 0.891933
12.3578 0.942299
12.3601 0.929121
12.3624 0.910387
12.3648 0.937707
12.3671 0.923688
12.3695 0.915891
12.3718 0.884638
12.3742 0.895946
12.3765 0.930863
12.3789 0.965385
12.3812 1.01483
12.3836 0.994983
12.3859 0.94024
12.3882 0.925285
12.3906 0.937691
12.3929 0.948638
12.3953 0.95633
12.3976 0.997568
12.4 1.03554
12.4023 1.00159
12.4047 0.960389
12.407 0.920663
12.4094 0.872517
12.4117 0.921222
12.414 0.973258
12.4164 0.967602
12.4187 0.936654
12.4211 0.973378
12.4234 0.985067
12.4258 0.975005
12.4281 0.992973
12.4305 0.996972
12.4328 0.969828
12.4352 0.94746
12.4375 0.930447
12.4398 0.958353
12.4422 1.01669
12.4445 1.03815
12.4469 1.02009
12.4492 1.01293
12.4516 1.04103
12.4539 1.04863
12.4563 1.01406
12.4586 1.00253
12.461 1.01397
12.4633 0.988004
12.4656 0.960747
12.468 0.989854
12.4703 0.982683
12.4727 0.95491
12.475 0.960168
12.4774 1.01812
12.4797 0.988826
12.4821 0.981935
12.4844 0.963503
12.4868 0.995905
12.4891 0.989465
12.4914 0.960062
12.4938 0.970773
12.4961 0.992227
12.4985 1.00542
12.5008 1.00205
12.5032 1.0074
12.5055 1.03083
12.5079 1.00742
12.5102 0.983633
12.5126 0.988114
12.5149 0.966404
12.5172 0.991218
12.5196 0.994646
12.5219 0.922272
12.5243 0.896911
12.5266 0.961931
12.529 0.977126
12.5313 0.950163
12.5337 0.948014
12.536 0.963128
12.5384 0.970231
12.5407 0.989747
12.543 0.974079
12.5454 0.964522
12.5477 1.02262
12.5501 1.02243
12.5524 0.975547
12.5548 0.928733
12.5571 0.90892
12.5595 0.962184
12.5618 0.996282
12.5642 0.958129
12.5665 0.966773
12.5688 0.982011
12.5712 0.931415
12.5735 0.941489
12.5759 0.989375
12.5782 1.00405
12.5806 1.00868
12.5829 1.01797
12.5853 1.01536
12.5876 0.951408
12.59 1.02854
12.5923 1.07058
12.5946 1.03686
12.597 1.01194
12.5993 0.991309
12.6017 0.984771
12.604 0.993026
12.6064 1.04658
12.6087 1.01379
12.6111 0.986323
12.6134 0.955827
12.6157 0.935213
12.6181 0.958161
12.6204 0.982843
12.6228 0.981639
12.6251 0.968647
12.6275 0.953089
12.6298 0.930578
12.6322 0.912682
12.6345 0.930047
12.6369 0.943072
12.6392 0.9391
12.6415 0.943732
12.6439 0.958745
12.6462 0.963819
12.6486 0.977083
12.6509 0.984785
12.6533 0.97984
12.6556 0.955888
12.658 0.960449
12.6603 0.964268
12.6627 0.926923
12.665 0.926842
12.6673 0.945359
12.6697 0.982549
12.672 0.975975
12.6744 0.965536
12.6767 0.992833
12.6791 1.02899
12.6814 1.00833
12.6838 0.976267
12.6861 0.946803
12.6885 0.96901
12.6908 0.994137
12.6931 0.997422
12.6955 1.01243
12.6978 1.00904
12.7002 1.00129
12.7025 0.962399
12.7049 0.96887
12.7072 1.01017
12.7096 1.00492
12.7119 0.937901
12.7143 0.951757
12.7166 1.0217
12.7189 1.06619
12.7213 1.03119
12.7236 1.0267
12.726 0.965317
12.7283 0.925797
12.7307 0.946442
12.733 0.95125
12.7354 0.94009
12.7377 0.946598
12.7401 0.986975
12.7424 0.980909
12.7447 0.958934
12.7471 0.986769
12.7494 0.996021
12.7518 0.98844
12.7541 0.992546
12.7565 0.985686
12.7588 1.00871
12.7612 1.02111
12.7635 0.974073
12.7659 0.949071
12.7682 0.956804
12.7705 0.931415
12.7729 0.939133
12.7752 1.00539
12.7776 1.0135
12.7799 0.990657
12.7823 0.954576
12.7846 0.961876
12.787 0.957214
12.7893 0.934358
12.7917 0.933996
12.794 0.980459
12.7963 1.02295
12.7987 0.976265
12.801 0.93963
12.8034 0.936805
12.8057 0.961746
12.8081 0.97715
12.8104 1.01913
12.8128 1.05783
12.8151 1.04438
12.8175 1.00157
12.8198 1.01428
12.8221 1.02202
12.8245 1.02034
12.8268 0.984812
12.8292 0.964971
12.8315 0.970549
12.8339 1.0069
12.8362 0.996138
12.8386 0.954013
12.8409 0.95337
12.8433 0.957725
12.8456 0.974374
12.8479 1.01579
12.8503 0.99916
12.8526 0.969204
12.855 1.01613
12.8573 1.04497
12.8597 1.00212
12.862 0.976651
12.8644 0.993596
12.8667 0.997301
12.869 0.992436
12.8714 0.969596
12.8737 0.977498
12.8761 0.992327
12.8784 0.985621
12.8808 0.970635
12.8831 0.959066
12.8855 0.964814
12.8878 0.968108
12.8902 1.02072
12.8925 1.02956
12.8948 0.972229
12.8972 0.974162
12.8995 1.00188
12.9019 1.02093
12.9042 0.971293
12.9066 0.969071
12.9089 0.982099
12.9113 1.00976
12.9136 1.01417
12.916 1.01461
12.9183 1.01692
12.9206 1.02862
12.923 1.0364
12.9253 1.02739
12.9277 1.03265
12.93 1.0001
12.9324 0.943468
12.9347 0.948449
12.9371 0.988093
12.9394 1.00724
12.9418 1.00972
12.9441 0.983692
12.9464 0.948145
12.9488 0.980344
12.9511 0.993557
12.9535 0.983486
12.9558 1.0197
12.9582 1.08837
12.9605 1.03831
12.9629 0.975382
12.9652 0.978145
12.9676 1.04162
12.9699 1.01781
12.9722 0.948694
12.9746 0.968721
12.9769 1.0161
12.9793 0.987758
12.9816 0.943448
12.984 0.917282
12.9863 0.935821
12.9887 1.03142
12.991 1.0159
12.9934 1.02466
12.9957 1.04517
12.998 1.0565
13.0004 1.06618
13.0027 1.03269
13.0051 1.01248
13.0074 0.962707
13.0098 0.987013
13.0121 0.97989
13.0145 0.961589
13.0168 0.975964
13.0192 0.97868
13.0215 0.953836
13.0238 0.902189
13.0262 0.926658
13.0285 0.980885
13.0309 1.02459
13.0332 1.03487
13.0356 1.0137
13.0379 1.00057
13.0403 0.982863
13.0426 0.955369
13.045 0.967318
13.0473 1.01024
13.0496 1.00984
13.052 1.01457
13.0543 1.02581
13.0567 1.00955
13.059 1.02117
13.0614 0.990803
13.0637 0.910962
13.0661 0.89876
13.0684 0.926935
13.0708 0.94153
13.0731 0.962013
13.0754 1.00465
13.0778 1.0017
13.0801 0.969271
13.0825 0.962935
13.0848 0.961499
13.0872 0.966186
13.0895 0.931609
13.0919 0.949533
13.0942 0.90573
13.0966 0.919369
13.0989 0.936851
13.1012 0.928679
13.1036 0.983195
13.1059 1.01938
13.1083 1.04127
13.1106 1.01684
13.113 0.983524
13.1153 0.960253
13.1177 0.987193
13.12 1.00994
13.1223 1.01389
13.1247 0.932124
13.127 0.896942
13.1294 0.9325
13.1317 0.947838
13.1341 0.999372
13.1364 1.01661
13.1388 0.977448
13.1411 0.937599
13.1435 0.921446
13.1458 0.971149
13.1481 1.04231
13.1505 1.04028
13.1528 1.02051
13.1552 1.02001
13.1575 1.00603
13.1599 1.02258
13.1622 1.03262
13.1646 1.0053
13.1669 0.985658
13.1693 0.981934
13.1716 0.995469
13.1739 1.01639
13.1763 0.968141
13.1786 0.882657
13.181 0.882654
13.1833 0.916429
13.1857 0.95821
13.188 0.95983
13.1904 0.939311
13.1927 0.961246
13.1951 0.995569
13.1974 1.01422
13.1997 0.951896
13.2021 0.959757
13.2044 0.993555
13.2068 1.03718
13.2091 1.0466
13.2115 1.03158
13.2138 0.966311
13.2162 0.964881
13.2185 0.954743
13.2209 0.963591
13.2232 1.02445
13.2255 1.0166
13.2279 1.02833
13.2302 0.998713
13.2326 0.977201
13.2349 0.953573
13.2373 0.987402
13.2396 0.964522
13.242 0.942516
13.2443 0.973599
13.2467 0.977563
13.249 0.966577
13.2513 0.92855
13.2537 0.965384
13.256 0.941436
13.2584 0.907637
13.2607 0.855944
13.2631 0.957589
13.2654 0.972116
13.2678 0.891807
13.2701 0.934831
13.2725 1.03439
13.2748 0.991795
13.2771 0.954974
13.2795 0.926596
13.2818 0.974697
13.2842 1.0094
13.2865 0.984142
13.2889 0.98118
13.2912 0.99721
13.2936 1.06121
13.2959 1.06043
13.2983 1.00072
13.3006 1.00753
13.3029 0.990182
13.3053 0.978582
13.3076 0.960722
13.31 0.969679
13.3123 1.00302
13.3147 1.02259
13.317 0.975811
13.3194 0.960159
13.3217 1.00256
13.3241 0.979493
13.3264 0.981021
13.3287 1.00382
13.3311 1.00395
13.3334 0.993379
13.3358 0.958528
13.3381 0.954964
13.3405 0.956124
13.3428 0.956769
13.3452 0.969809
13.3475 0.976158
13.3499 0.968361
13.3522 0.954908
13.3545 0.939781
13.3569 0.918538
13.3592 0.922301
13.3616 0.975949
13.3639 0.9917
13.3663 0.968572
13.3686 0.993589
13.371 1.02654
13.3733 1.03066
13.3756 1.00961
13.378 1.00653
13.3803 1.01054
13.3827 0.982581
13.385 0.993956
13.3874 1.00937
13.3897 1.01812
13.3921 1.05584
13.3944 1.03704
13.3968 0.97768
13.3991 0.986145
13.4014 0.993743
13.4038 0.954538
13.4061 0.990804
13.4085 1.04949
13.4108 1.06246
13.4132 1.03709
13.4155 1.00339
13.4179 1.02597
13.4202 1.04586
13.4226 1.02863
13.4249 1.02912
13.4272 1.03229
13.4296 1.00482
13.4319 0.981233
13.4343 0.965673
13.4366 0.924999
13.439 0.930512
13.4413 0.984388
13.4437 1.04025
13.446 1.03903
13.4484 1.02746
13.4507 1.02915
13.453 1.0609
13.4554 1.05351
13.4577 1.0417
13.4601 1.02439
13.4624 0.99335
13.4648 0.996123
13.4671 1.0239
13.4695 1.0182
13.4718 1.03877
13.4742 1.03712
13.4765 0.989655
13.4788 0.980635
13.4812 1.01857
13.4835 1.02043
13.4859 1.06795
13.4882 1.09958
13.4906 1.06133
13.4929 0.990351
13.4953 1.03475
13.4976 1.06987
13.5 1.04675
13.5023 1.0399
13.5046 1.03664
13.507 1.07491
13.5093 1.08064
13.5117 1.05729
13.514 1.0212
13.5164 0.952261
13.5187 0.981369
13.5211 1.06645
13.5234 1.08802
13.5258 1.08464
13.5281 1.07791
13.5304 1.09826
13.5328 1.06461
13.5351 1.02063
13.5375 1.0343
13.5398 1.04931
13.5422 0.998485
13.5445 1.01908
13.5469 1.05694
13.5492 1.07607
13.5516 1.05542
13.5539 1.01503
13.5562 1.00942
13.5586 0.997078
13.5609 1.02621
13.5633 1.01638
13.5656 1.01753
13.568 1.04107
13.5703 1.00876
13.5727 0.985342
13.575 1.0309
13.5774 1.01732
13.5797 0.964315
13.582 0.988628
13.5844 0.996167
13.5867 1.04444
13.5891 1.01162
13.5914 0.940109
13.5938 0.962656
13.5961 0.956336
13.5985 0.994929
13.6008 1.00594
13.6032 1.02532
13.6055 0.990978
13.6078 1.02621
13.6102 1.01046
13.6125 1.00625
13.6149 1.03223
13.6172 1.1019
13.6196 1.10936
13.6219 1.04175
13.6243 1.01324
13.6266 1.01897
13.6289 1.07022
13.6313 0.998496
13.6336 0.947967
13.636 1.0104
13.6383 1.03846
13.6407 1.05445
13.643 0.993319
13.6454 0.979355
13.6477 1.03683
13.6501 1.03656
13.6524 0.975324
13.6547 0.941752
13.6571 0.975398
13.6594 0.990902
13.6618 1.00665
13.6641 1.03501
13.6665 1.07688
13.6688 1.1011
13.6712 1.05382
13.6735 1.04128
13.6759 1.03245
13.6782 1.03848
13.6805 1.04279
13.6829 1.00876
13.6852 1.00968
13.6876 1.0237
13.6899 1.03771
13.6923 1.03134
13.6946 0.997395
13.697 0.974349
13.6993 0.987947
13.7017 1.00204
13.704 1.00994
13.7063 1.00587
13.7087 1.01576
13.711 0.973202
13.7134 0.965288
13.7157 0.988162
13.7181 0.981227
13.7204 0.97393
13.7228 0.998346
13.7251 1.02025
13.7275 1.00905
13.7298 0.981194
13.7321 0.957666
13.7345 0.97785
13.7368 0.983938
13.7392 0.953917
13.7415 0.931409
13.7439 0.93553
13.7462 0.968767
13.7486 0.980862
13.7509 0.97702
13.7533 1.00213
13.7556 1.01494
13.7579 0.973249
13.7603 0.978313
13.7626 0.994282
13.765 0.995884
13.7673 0.98452
13.7697 0.987553
13.772 0.977118
13.7744 0.965791
13.7767 0.941253
13.7791 0.99031
13.7814 1.03205
13.7837 0.995317
13.7861 0.983659
13.7884 1.06715
13.7908 1.06994
13.7931 1.06598
13.7955 1.00883
13.7978 0.970051
13.8002 0.94346
13.8025 0.943996
13.8049 0.959684
13.8072 0.962733
13.8095 1.00847
13.8119 1.03776
13.8142 1.03813
13.8166 1.02035
13.8189 0.99131
13.8213 0.997702
13.8236 0.996693
13.826 0.952771
13.8283 0.923165
13.8307 0.908263
13.833 0.943503
13.8353 0.980438
13.8377 0.976739
13.84 0.898103
13.8424 0.881441
13.8447 0.941819
13.8471 1.00558
13.8494 1.00643
13.8518 0.957068
13.8541 0.95282
13.8565 0.984178
13.8588 0.98795
13.8611 0.976461
13.8635 0.987512
13.8658 1.00137
13.8682 0.998605
13.8705 0.984248
13.8729 1.03238
13.8752 1.05197
13.8776 1.06502
13.8799 1.0307
13.8822 1.03619
13.8846 1.00017
13.8869 1.01253
13.8893 1.03702
13.8916 1.04308
13.894 1.02114
13.8963 1.00652
13.8987 0.976853
13.901 0.961743
13.9034 1.00596
13.9057 1.0005
13.908 0.991705
13.9104 0.972357
13.9127 0.971172
13.9151 0.972141
13.9174 0.997843
13.9198 1.0059
13.9221 0.984642
13.9245 0.942266
13.9268 0.912481
13.9292 0.922431
13.9315 0.973947
13.9338 0.992785
13.9362 0.987478
13.9385 0.998278
13.9409 1.03545
13.9432 1.04624
13.9456 1.04708
13.9479 1.04122
13.9503 1.03834
13.9526 1.02521
13.955 1.06325
13.9573 1.07791
13.9596 1.03209
13.962 0.991619
13.9643 0.97255
13.9667 1.0177
13.969 1.04664
13.9714 1.04037
13.9737 1.01316
13.9761 1.00296
13.9784 1.0452
13.9808 1.00938
13.9831 1.00221
13.9854 0.96581
13.9878 0.958125
13.9901 0.953232
13.9925 1.0084
13.9948 0.9981
13.9972 0.975806
13.9995 1.01043
14.0019 1.00752
14.0042 1.0023
14.0066 0.991127
14.0089 1.01255
14.0112 1.00884
14.0136 0.989373
14.0159 0.952878
14.0183 0.965895
14.0206 0.947705
14.023 0.948604
14.0253 1.00938
14.0277 1.01123
14.03 1.00566
14.0324 1.0193
14.0347 1.03157
14.037 1.00251
14.0394 0.988776
14.0417 0.98762
14.0441 0.998918
14.0464 0.981589
14.0488 0.964909
14.0511 1.00455
14.0535 1.05976
14.0558 1.05865
14.0582 1.01585
14.0605 0.982344
14.0628 0.980351
14.0652 1.00242
14.0675 1.05459
14.0699 1.09101
14.0722 1.08109
14.0746 1.05604
14.0769 1.03142
14.0793 0.987447
14.0816 1.01451
14.084 1.03094
14.0863 1.05265
14.0886 1.05181
14.091 1.01575
14.0933 1.01152
14.0957 1.06501
14.098 1.0883
14.1004 1.03488
14.1027 0.984387
14.1051 0.917871
14.1074 0.929373
14.1098 0.952416
14.1121 0.943903
14.1144 0.954177
14.1168 0.943361
14.1191 0.940745
14.1215 0.977349
14.1238 1.0045
14.1262 0.994574
14.1285 0.974419
14.1309 0.962381
14.1332 0.944427
14.1355 0.986518
14.1379 1.02429
14.1402 1.03541
14.1426 1.04622
14.1449 1.03959
14.1473 1.02412
14.1496 0.984062
14.152 0.963331
14.1543 1.01689
14.1567 1.08556
14.159 1.05474
14.1613 0.998676
14.1637 1.00452
14.166 1.01984
14.1684 1.06373
14.1707 1.07615
14.1731 1.0651
14.1754 1.06867
14.1778 0.957032
14.1801 0.911385
14.1825 0.951103
14.1848 0.955666
14.1871 1.01541
14.1895 1.00355
14.1918 1.02517
14.1942 1.01155
14.1965 0.971598
14.1989 0.958837
14.2012 0.972464
14.2036 1.00908
14.2059 1.03615
14.2083 1.01764
14.2106 1.03079
14.2129 1.04187
14.2153 1.04968
14.2176 1.0477
14.22 1.01793
14.2223 0.985068
14.2247 1.00031
14.227 1.04966
14.2294 1.06353
14.2317 1.06303
14.2341 1.03093
14.2364 1.03215
14.2387 1.05677
14.2411 1.02625
14.2434 1.0174
14.2458 1.0219
14.2481 1.03391
14.2505 1.05023
14.2528 1.01415
14.2552 1.02817
14.2575 1.01528
14.2599 0.958731
14.2622 0.99005
14.2645 0.966797
14.2669 1.00013
14.2692 1.07849
14.2716 1.05855
14.2739 1.04043
14.2763 1.07001
14.2786 1.08644
14.281 1.07786
14.2833 1.07306
14.2857 1.08326
14.288 1.07123
14.2903 1.02583
14.2927 0.995426
14.295 1.02017
14.2974 1.04273
14.2997 1.0682
14.3021 1.05029
14.3044 1.0263
14.3068 0.976258
14.3091 0.957389
14.3115 0.956618
14.3138 0.958536
14.3161 0.99908
14.3185 1.0173
14.3208 0.971918
14.3232 0.964325
14.3255 1.01143
14.3279 1.02236
14.3302 0.99223
14.3326 0.961006
14.3349 0.982511
14.3373 0.985272
14.3396 1.0657
14.3419 1.00123
14.3443 1.01969
14.3466 1.03753
14.349 1.05906
14.3513 1.05791
14.3537 1.02615
14.356 1.04135
14.3584 0.984273
14.3607 0.998155
14.3631 1.10076
14.3654 1.08674
14.3677 0.989378
14.3701 0.968742
14.3724 0.959112
14.3748 0.958121
14.3771 0.952976
14.3795 0.970419
14.3818 1.00386
14.3842 1.03287
14.3865 1.03307
14.3888 0.997578
14.3912 0.956592
14.3935 0.992425
14.3959 0.991429
14.3982 0.90111
14.4006 0.960388
14.4029 0.954774
14.4053 0.979444
14.4076 0.963268
14.41 0.969676
14.4123 0.963174
14.4146 0.98072
14.417 1.00794
14.4193 1.00243
14.4217 0.984411
14.424 1.01465
14.4264 1.07341
14.4287 1.05463
14.4311 1.01525
14.4334 1.02171
14.4358 1.00362
14.4381 0.988327
14.4404 0.961472
14.4428 0.880076
14.4451 0.935075
14.4475 1.01258
14.4498 0.997955
14.4522 1.00709
14.4545 1.04869
14.4569 1.03377
14.4592 1.01226
14.4616 0.977685
14.4639 0.96191
14.4662 0.914913
14.4686 0.935645
14.4709 0.978997
14.4733 0.937358
14.4756 0.955732
14.478 1.02502
14.4803 1.00264
14.4827 0.977273
14.485 1.01308
14.4874 0.99501
14.4897 0.958282
14.492 0.935311
14.4944 0.954662
14.4967 1.02879
14.4991 1.0892
14.5014 1.0214
14.5038 0.962171
14.5061 0.944289
14.5085 1.04257
14.5108 1.07236
14.5132 0.992325
14.5155 0.957275
14.5178 0.997594
14.5202 1.00634
14.5225 1.02307
14.5249 1.03521
14.5272 1.00285
14.5296 0.941223
14.5319 0.943328
14.5343 1.0022
14.5366 0.989727
14.539 0.947869
14.5413 0.939861
14.5436 0.913528
14.546 0.939681
14.5483 0.929587
14.5507 0.947565
14.553 0.978004
14.5554 1.02585
14.5577 1.03112
14.5601 0.989133
14.5624 0.964976
14.5648 0.925677
14.5671 0.898951
14.5694 0.920701
14.5718 0.97396
14.5741 1.01125
14.5765 1.00987
14.5788 0.953191
14.5812 0.975048
14.5835 1.05025
14.5859 1.03169
14.5882 0.990472
14.5906 0.989587
14.5929 0.99752
14.5952 1.02215
14.5976 1.00417
14.5999 0.99164
14.6023 0.945208
14.6046 0.976716
14.607 0.968856
14.6093 0.975066
14.6117 0.973954
14.614 0.975491
14.6164 0.966305
14.6187 0.935
14.621 0.954841
14.6234 1.01225
14.6257 1.01464
14.6281 0.979406
14.6304 0.958803
14.6328 0.967933
14.6351 1.00735
14.6375 1.00696
14.6398 1.04344
14.6421 1.07127
14.6445 1.02299
14.6468 1.01303
14.6492 0.98019
14.6515 1.00834
14.6539 0.968382
14.6562 0.968585
14.6586 0.957771
14.6609 0.968625
14.6633 1.00351
14.6656 1.0663
14.6679 1.06366
14.6703 1.02633
14.6726 1.03401
14.675 1.00469
14.6773 0.920525
14.6797 0.934774
14.682 0.965068
14.6844 0.985802
14.6867 1.00182
14.6891 0.944238
14.6914 0.933384
14.6937 0.972401
14.6961 0.930342
14.6984 0.930276
14.7008 0.917514
14.7031 0.916044
14.7055 0.923507
14.7078 0.961115
14.7102 0.959319
14.7125 0.916844
14.7149 0.905786
14.7172 0.979698
14.7195 1.00425
14.7219 0.995913
14.7242 0.996178
14.7266 0.93025
14.7289 0.963589
14.7313 0.98276
14.7336 1.00135
14.736 0.927212
14.7383 1.01879
14.7407 0.972324
14.743 0.952232
14.7453 0.980889
14.7477 1.01851
14.75 1.01775
14.7524 0.984351
14.7547 0.924355
14.7571 0.929437
14.7594 0.939721
14.7618 0.947125
14.7641 0.99274
14.7665 0.963519
14.7688 0.972604
14.7711 0.97418
14.7735 1.05216
14.7758 1.02813
14.7782 0.994493
14.7805 0.997075
14.7829 1.00007
14.7852 1.02737
14.7876 1.05157
14.7899 1.03525
14.7923 1.03389
14.7946 1.00461
14.7969 1.0161
14.7993 1.0539
14.8016 1.04447
14.804 1.0264
14.8063 1.06011
14.8087 1.03661
14.811 1.06785
14.8134 1.05464
14.8157 1.02719
14.8181 1.05779
14.8204 1.02694
14.8227 0.953472
14.8251 0.859939
14.8274 0.929569
14.8298 0.985422
14.8321 0.9697
14.8345 0.975133
14.8368 0.999771
14.8392 1.00263
14.8415 0.981649
14.8439 0.990054
14.8462 0.996249
14.8485 0.976869
14.8509 1.02298
14.8532 1.06527
14.8556 1.0073
14.8579 1.02874
14.8603 0.957487
14.8626 0.987112
14.865 0.940729
14.8673 0.919893
14.8697 0.919798
14.872 0.914827
14.8743 0.997895
14.8767 1.06001
14.879 1.00945
14.8814 0.982611
14.8837 1.0364
14.8861 1.04482
14.8884 1.04646
14.8908 1.04433
14.8931 1.05451
14.8954 1.02055
14.8978 0.972549
14.9001 0.999835
14.9025 0.978111
14.9048 0.915102
14.9072 0.914066
14.9095 0.961773
14.9119 1.00992
14.9142 1.01433
14.9166 1.00023
14.9189 0.969366
14.9212 1.00172
14.9236 1.00811
14.9259 1.08863
14.9283 1.07312
14.9306 1.03828
14.933 1.03056
14.9353 1.01351
14.9377 1.0496
14.94 1.0446
14.9424 1.01124
14.9447 0.993463
14.947 0.986168
14.9494 0.94811
14.9517 0.993038
14.9541 1.08548
14.9564 1.11229
14.9588 1.02578
14.9611 1.00624
14.9635 1.02721
14.9658 0.950417
14.9682 0.965509
14.9705 0.977507
14.9728 0.925278
14.9752 0.963816
14.9775 1.00875
14.9799 0.972309
14.9822 0.973796
14.9846 0.978571
14.9869 0.95433
14.9893 0.902976
14.9916 0.952313
14.994 1.01243
14.9963 0.974869
14.9986 0.900158
