[DEFAULT]

version = diffpy.pdfgetx-2.2.1

# input and output specifications
dataformat = QA
inputfile = bf2_acc_r01.xyd
backgroundfiles = emptycap.xyd
outputtype = sq

# PDF calculation setup
mode = xray
composition = AlOOH
bgscales = 0.5
rpoly = 1.13
qmaxinst = 20.396
qmin = 0.406
qmax = 15
rmin = 0
rmax = 300
rstep = 0.01

# End of config --------------------------------------------------------------

#### start data
#S 1
#L Q(Ã…$^{-1}$)  S(a.u.)
0.408095 1.52397
0.41044 1.52037
0.412785 1.51399
0.415131 1.50483
0.417476 1.49195
0.419821 1.48608
0.422167 1.47893
0.424512 1.47233
0.426857 1.46702
0.429203 1.46195
0.431548 1.45908
0.433894 1.45031
0.436239 1.44138
0.438584 1.43539
0.44093 1.43047
0.443275 1.42443
0.44562 1.4224
0.447966 1.42038
0.450311 1.41486
0.452657 1.40382
0.455002 1.40293
0.457347 1.3995
0.459693 1.39086
0.462038 1.37884
0.464383 1.37401
0.466729 1.36986
0.469074 1.36716
0.47142 1.36454
0.473765 1.36073
0.47611 1.35532
0.478456 1.35318
0.480801 1.35068
0.483146 1.346
0.485492 1.3386
0.487837 1.33116
0.490182 1.32672
0.492528 1.32591
0.494873 1.32465
0.497219 1.31994
0.499564 1.31623
0.501909 1.31076
0.504255 1.30548
0.5066 1.30121
0.508945 1.29803
0.511291 1.29336
0.513636 1.29129
0.515982 1.29053
0.518327 1.28807
0.520672 1.2821
0.523018 1.28052
0.525363 1.27573
0.527708 1.27215
0.530054 1.26917
0.532399 1.26507
0.534745 1.26045
0.53709 1.25528
0.539435 1.25159
0.541781 1.24866
0.544126 1.24513
0.546471 1.24304
0.548817 1.2428
0.551162 1.24129
0.553507 1.23874
0.555853 1.23654
0.558198 1.23334
0.560544 1.23047
0.562889 1.2296
0.565234 1.22992
0.56758 1.22932
0.569925 1.22555
0.57227 1.22474
0.574616 1.22177
0.576961 1.21702
0.579307 1.21381
0.581652 1.21118
0.583997 1.21157
0.586343 1.21028
0.588688 1.20639
0.591033 1.20152
0.593379 1.19955
0.595724 1.20166
0.59807 1.20241
0.600415 1.20065
0.60276 1.1985
0.605106 1.19397
0.607451 1.19323
0.609796 1.1925
0.612142 1.19191
0.614487 1.19511
0.616832 1.19252
0.619178 1.18705
0.621523 1.18359
0.623869 1.18291
0.626214 1.18132
0.628559 1.1785
0.630905 1.17907
0.63325 1.17806
0.635595 1.17507
0.637941 1.1757
0.640286 1.17586
0.642632 1.17209
0.644977 1.17069
0.647322 1.17284
0.649668 1.17175
0.652013 1.16987
0.654358 1.16617
0.656704 1.16634
0.659049 1.1704
0.661395 1.16805
0.66374 1.16416
0.666085 1.16472
0.668431 1.16542
0.670776 1.16334
0.673121 1.15942
0.675467 1.16067
0.677812 1.16076
0.680158 1.16067
0.682503 1.16189
0.684848 1.16598
0.687194 1.16406
0.689539 1.16279
0.691884 1.16252
0.69423 1.16259
0.696575 1.16142
0.69892 1.1649
0.701266 1.16444
0.703611 1.16326
0.705957 1.16406
0.708302 1.16277
0.710647 1.16304
0.712993 1.16732
0.715338 1.17066
0.717683 1.16952
0.720029 1.17004
0.722374 1.16738
0.72472 1.16766
0.727065 1.16973
0.72941 1.17147
0.731756 1.17248
0.734101 1.174
0.736446 1.17773
0.738792 1.18111
0.741137 1.18094
0.743483 1.17548
0.745828 1.17377
0.748173 1.17831
0.750519 1.18348
0.752864 1.18328
0.755209 1.18408
0.757555 1.18752
0.7599 1.1909
0.762245 1.19214
0.764591 1.19026
0.766936 1.19138
0.769282 1.19552
0.771627 1.20143
0.773972 1.20489
0.776318 1.20249
0.778663 1.20943
0.781008 1.21174
0.783354 1.21083
0.785699 1.21023
0.788045 1.21398
0.79039 1.21906
0.792735 1.22196
0.795081 1.22731
0.797426 1.23243
0.799771 1.23178
0.802117 1.2319
0.804462 1.23609
0.806808 1.23972
0.809153 1.24153
0.811498 1.24242
0.813844 1.25146
0.816189 1.25875
0.818534 1.26364
0.82088 1.26573
0.823225 1.26516
0.82557 1.27079
0.827916 1.27787
0.830261 1.28333
0.832607 1.28628
0.834952 1.28751
0.837297 1.29244
0.839643 1.29799
0.841988 1.3021
0.844333 1.30668
0.846679 1.31699
0.849024 1.32113
0.85137 1.32546
0.853715 1.32934
0.85606 1.33348
0.858406 1.33998
0.860751 1.35044
0.863096 1.35478
0.865442 1.35821
0.867787 1.36362
0.870133 1.37137
0.872478 1.37456
0.874823 1.38278
0.877169 1.39165
0.879514 1.39985
0.881859 1.41028
0.884205 1.41266
0.88655 1.41506
0.888896 1.41889
0.891241 1.42591
0.893586 1.43914
0.895932 1.44218
0.898277 1.4491
0.900622 1.46007
0.902968 1.47176
0.905313 1.47554
0.907658 1.48019
0.910004 1.48379
0.912349 1.49048
0.914695 1.50018
0.91704 1.50408
0.919385 1.51131
0.921731 1.52413
0.924076 1.53488
0.926421 1.53885
0.928767 1.53873
0.931112 1.54392
0.933458 1.54778
0.935803 1.55282
0.938148 1.55914
0.940494 1.55844
0.942839 1.56502
0.945184 1.57306
0.94753 1.57917
0.949875 1.58252
0.952221 1.58865
0.954566 1.59637
0.956911 1.60162
0.959257 1.60328
0.961602 1.60239
0.963947 1.60578
0.966293 1.61234
0.968638 1.61611
0.970983 1.61739
0.973329 1.61731
0.975674 1.6162
0.97802 1.61255
0.980365 1.61008
0.98271 1.60656
0.985056 1.60054
0.987401 1.59844
0.989746 1.59032
0.992092 1.58584
0.994437 1.58015
0.996783 1.56794
0.999128 1.55604
1.00147 1.54923
1.00382 1.53899
1.00616 1.52851
1.00851 1.52114
1.01085 1.50476
1.0132 1.49429
1.01555 1.48303
1.01789 1.46762
1.02024 1.44855
1.02258 1.44606
1.02493 1.42321
1.02727 1.40634
1.02962 1.39365
1.03196 1.37563
1.03431 1.35019
1.03665 1.33557
1.039 1.3208
1.04134 1.30432
1.04369 1.28785
1.04604 1.27422
1.04838 1.26335
1.05073 1.25051
1.05307 1.23578
1.05542 1.22137
1.05776 1.21146
1.06011 1.19612
1.06245 1.18392
1.0648 1.17435
1.06714 1.16325
1.06949 1.15132
1.07183 1.14074
1.07418 1.13239
1.07653 1.12448
1.07887 1.11414
1.08122 1.10431
1.08356 1.09598
1.08591 1.08761
1.08825 1.08085
1.0906 1.07852
1.09294 1.07192
1.09529 1.06092
1.09763 1.05341
1.09998 1.04788
1.10232 1.03749
1.10467 1.03123
1.10701 1.02856
1.10936 1.02565
1.11171 1.02053
1.11405 1.01253
1.1164 1.00545
1.11874 0.998979
1.12109 0.993356
1.12343 0.98819
1.12578 0.982676
1.12812 0.981347
1.13047 0.977331
1.13281 0.97436
1.13516 0.97181
1.1375 0.965427
1.13985 0.960307
1.1422 0.960111
1.14454 0.957145
1.14689 0.951716
1.14923 0.951684
1.15158 0.943696
1.15392 0.942481
1.15627 0.942037
1.15861 0.938605
1.16096 0.930679
1.1633 0.925705
1.16565 0.924436
1.16799 0.923564
1.17034 0.922033
1.17269 0.921435
1.17503 0.916813
1.17738 0.914341
1.17972 0.914848
1.18207 0.914361
1.18441 0.902512
1.18676 0.899797
1.1891 0.903441
1.19145 0.904649
1.19379 0.900046
1.19614 0.893857
1.19848 0.894842
1.20083 0.898098
1.20318 0.896902
1.20552 0.8903
1.20787 0.886226
1.21021 0.884936
1.21256 0.884386
1.2149 0.882523
1.21725 0.879008
1.21959 0.876364
1.22194 0.876798
1.22428 0.875392
1.22663 0.874766
1.22897 0.875186
1.23132 0.87164
1.23366 0.868844
1.23601 0.866409
1.23836 0.866825
1.2407 0.8688
1.24305 0.862709
1.24539 0.862119
1.24774 0.860864
1.25008 0.858075
1.25243 0.854384
1.25477 0.852857
1.25712 0.854218
1.25946 0.856407
1.26181 0.856472
1.26415 0.853267
1.2665 0.849951
1.26885 0.848119
1.27119 0.845371
1.27354 0.843827
1.27588 0.844559
1.27823 0.844817
1.28057 0.841599
1.28292 0.842224
1.28526 0.842572
1.28761 0.839984
1.28995 0.839764
1.2923 0.842715
1.29464 0.839142
1.29699 0.835048
1.29934 0.835351
1.30168 0.835334
1.30403 0.83045
1.30637 0.828996
1.30872 0.829301
1.31106 0.829476
1.31341 0.832036
1.31575 0.831383
1.3181 0.830349
1.32044 0.830601
1.32279 0.83211
1.32513 0.829155
1.32748 0.825205
1.32983 0.823602
1.33217 0.823693
1.33452 0.824231
1.33686 0.824645
1.33921 0.822319
1.34155 0.818469
1.3439 0.816579
1.34624 0.819058
1.34859 0.822042
1.35093 0.817946
1.35328 0.816059
1.35562 0.81689
1.35797 0.818494
1.36032 0.815988
1.36266 0.816546
1.36501 0.814973
1.36735 0.81349
1.3697 0.814808
1.37204 0.815691
1.37439 0.813191
1.37673 0.809677
1.37908 0.80617
1.38142 0.803454
1.38377 0.802595
1.38611 0.803788
1.38846 0.804275
1.3908 0.804958
1.39315 0.806802
1.3955 0.80545
1.39784 0.803341
1.40019 0.800346
1.40253 0.797308
1.40488 0.795796
1.40722 0.800396
1.40957 0.799981
1.41191 0.799098
1.41426 0.797664
1.4166 0.79522
1.41895 0.797958
1.42129 0.797354
1.42364 0.795796
1.42599 0.794769
1.42833 0.795479
1.43068 0.798829
1.43302 0.797086
1.43537 0.793121
1.43771 0.789947
1.44006 0.790293
1.4424 0.793301
1.44475 0.792829
1.44709 0.79273
1.44944 0.791794
1.45178 0.78816
1.45413 0.789996
1.45648 0.790452
1.45882 0.790113
1.46117 0.789602
1.46351 0.78948
1.46586 0.789076
1.4682 0.78948
1.47055 0.785438
1.47289 0.781278
1.47524 0.783944
1.47758 0.786213
1.47993 0.785241
1.48227 0.785025
1.48462 0.784696
1.48697 0.782198
1.48931 0.785018
1.49166 0.786406
1.494 0.785945
1.49635 0.784075
1.49869 0.782054
1.50104 0.785317
1.50338 0.781732
1.50573 0.781018
1.50807 0.782963
1.51042 0.782527
1.51276 0.771856
1.51511 0.77313
1.51745 0.776497
1.5198 0.777978
1.52215 0.776687
1.52449 0.779093
1.52684 0.780412
1.52918 0.77888
1.53153 0.775414
1.53387 0.772577
1.53622 0.775355
1.53856 0.775068
1.54091 0.775009
1.54325 0.775265
1.5456 0.774465
1.54794 0.77425
1.55029 0.776545
1.55264 0.775941
1.55498 0.772791
1.55733 0.770307
1.55967 0.765338
1.56202 0.770254
1.56436 0.772285
1.56671 0.771161
1.56905 0.773084
1.5714 0.773837
1.57374 0.774201
1.57609 0.769805
1.57843 0.764726
1.58078 0.767411
1.58313 0.770715
1.58547 0.773761
1.58782 0.774398
1.59016 0.772316
1.59251 0.768685
1.59485 0.77096
1.5972 0.766274
1.59954 0.765093
1.60189 0.768751
1.60423 0.772685
1.60658 0.76722
1.60892 0.765578
1.61127 0.764001
1.61362 0.76427
1.61596 0.771026
1.61831 0.773338
1.62065 0.769221
1.623 0.764667
1.62534 0.761745
1.62769 0.760121
1.63003 0.760324
1.63238 0.762365
1.63472 0.766308
1.63707 0.769271
1.63941 0.76665
1.64176 0.763983
1.6441 0.762862
1.64645 0.762955
1.6488 0.763211
1.65114 0.762265
1.65349 0.765831
1.65583 0.769871
1.65818 0.769891
1.66052 0.767285
1.66287 0.767439
1.66521 0.769427
1.66756 0.767241
1.6699 0.766235
1.67225 0.766897
1.67459 0.76654
1.67694 0.769387
1.67929 0.767085
1.68163 0.765198
1.68398 0.764993
1.68632 0.76481
1.68867 0.764966
1.69101 0.765749
1.69336 0.765728
1.6957 0.766605
1.69805 0.772037
1.70039 0.774761
1.70274 0.774085
1.70508 0.773845
1.70743 0.7742
1.70978 0.772777
1.71212 0.770833
1.71447 0.770916
1.71681 0.772125
1.71916 0.772789
1.7215 0.770863
1.72385 0.773056
1.72619 0.775123
1.72854 0.77431
1.73088 0.773042
1.73323 0.777242
1.73557 0.779426
1.73792 0.780322
1.74027 0.779711
1.74261 0.777568
1.74496 0.774213
1.7473 0.775343
1.74965 0.777546
1.75199 0.781467
1.75434 0.785128
1.75668 0.784756
1.75903 0.783326
1.76137 0.784047
1.76372 0.784723
1.76606 0.784675
1.76841 0.784295
1.77075 0.784067
1.7731 0.787083
1.77545 0.790285
1.77779 0.791973
1.78014 0.79159
1.78248 0.795829
1.78483 0.797803
1.78717 0.79896
1.78952 0.800021
1.79186 0.801213
1.79421 0.801735
1.79655 0.804704
1.7989 0.807329
1.80124 0.809512
1.80359 0.813017
1.80594 0.818988
1.80828 0.820099
1.81063 0.818789
1.81297 0.818861
1.81532 0.824831
1.81766 0.829842
1.82001 0.834553
1.82235 0.837433
1.8247 0.839549
1.82704 0.843515
1.82939 0.843812
1.83173 0.844649
1.83408 0.850514
1.83643 0.859619
1.83877 0.86605
1.84112 0.870401
1.84346 0.875859
1.84581 0.880527
1.84815 0.885292
1.8505 0.892579
1.85284 0.897286
1.85519 0.898397
1.85753 0.903344
1.85988 0.91279
1.86222 0.922737
1.86457 0.923191
1.86692 0.930938
1.86926 0.94241
1.87161 0.955307
1.87395 0.967881
1.8763 0.978046
1.87864 0.99215
1.88099 1.00201
1.88333 1.00828
1.88568 1.01689
1.88802 1.03012
1.89037 1.04151
1.89271 1.05297
1.89506 1.06544
1.8974 1.0792
1.89975 1.0917
1.9021 1.10292
1.90444 1.11533
1.90679 1.13112
1.90913 1.15132
1.91148 1.16012
1.91382 1.17794
1.91617 1.19478
1.91851 1.20973
1.92086 1.22638
1.9232 1.24222
1.92555 1.25629
1.92789 1.2714
1.93024 1.29141
1.93259 1.31887
1.93493 1.32923
1.93728 1.33541
1.93962 1.35036
1.94197 1.3725
1.94431 1.39274
1.94666 1.40292
1.949 1.4163
1.95135 1.43425
1.95369 1.44918
1.95604 1.45156
1.95838 1.46389
1.96073 1.47823
1.96308 1.48848
1.96542 1.49651
1.96777 1.50722
1.97011 1.51715
1.97246 1.51605
1.9748 1.51152
1.97715 1.50578
1.97949 1.49933
1.98184 1.49651
1.98418 1.49504
1.98653 1.48118
1.98887 1.46009
1.99122 1.44314
1.99357 1.42243
1.99591 1.41187
1.99826 1.39416
2.0006 1.37
2.00295 1.34638
2.00529 1.32266
2.00764 1.30335
2.00998 1.28518
2.01233 1.26678
2.01467 1.2475
2.01702 1.22789
2.01936 1.19993
2.02171 1.1694
2.02405 1.142
2.0264 1.12128
2.02875 1.09404
2.03109 1.0845
2.03344 1.06925
2.03578 1.05311
2.03813 1.04565
2.04047 1.02715
2.04282 1.00847
2.04516 0.995982
2.04751 0.981639
2.04985 0.958285
2.0522 0.95238
2.05454 0.93521
2.05689 0.91935
2.05924 0.909557
2.06158 0.905963
2.06393 0.89482
2.06627 0.885031
2.06862 0.877222
2.07096 0.868945
2.07331 0.858517
2.07565 0.852719
2.078 0.847492
2.08034 0.840914
2.08269 0.833727
2.08503 0.826505
2.08738 0.815705
2.08973 0.808925
2.09207 0.802679
2.09442 0.798554
2.09676 0.797822
2.09911 0.796131
2.10145 0.788029
2.1038 0.784346
2.10614 0.782452
2.10849 0.77873
2.11083 0.776357
2.11318 0.772791
2.11552 0.766093
2.11787 0.759732
2.12022 0.757224
2.12256 0.759056
2.12491 0.756358
2.12725 0.753769
2.1296 0.751071
2.13194 0.74815
2.13429 0.747807
2.13663 0.745101
2.13898 0.742636
2.14132 0.740127
2.14367 0.737547
2.14601 0.736925
2.14836 0.733331
2.1507 0.730272
2.15305 0.730042
2.1554 0.732285
2.15774 0.729932
2.16009 0.728195
2.16243 0.726277
2.16478 0.724721
2.16712 0.723998
2.16947 0.724133
2.17181 0.721046
2.17416 0.722655
2.1765 0.725145
2.17885 0.725178
2.18119 0.722786
2.18354 0.723607
2.18589 0.723889
2.18823 0.721695
2.19058 0.71739
2.19292 0.715592
2.19527 0.711506
2.19761 0.713981
2.19996 0.717474
2.2023 0.717654
2.20465 0.713888
2.20699 0.715407
2.20934 0.715714
2.21168 0.718132
2.21403 0.722448
2.21638 0.721856
2.21872 0.719539
2.22107 0.717021
2.22341 0.714367
2.22576 0.711145
2.2281 0.706242
2.23045 0.708818
2.23279 0.712857
2.23514 0.71334
2.23748 0.710428
2.23983 0.710879
2.24217 0.711202
2.24452 0.707673
2.24687 0.704632
2.24921 0.705076
2.25156 0.710322
2.2539 0.710286
2.25625 0.710088
2.25859 0.708743
2.26094 0.705866
2.26328 0.701758
2.26563 0.703694
2.26797 0.706525
2.27032 0.704799
2.27266 0.698962
2.27501 0.694856
2.27735 0.699221
2.2797 0.702321
2.28205 0.70502
2.28439 0.706162
2.28674 0.70334
2.28908 0.706415
2.29143 0.706242
2.29377 0.700963
2.29612 0.695719
2.29846 0.699592
2.30081 0.694942
2.30315 0.696126
2.3055 0.698286
2.30784 0.697956
2.31019 0.693326
2.31254 0.698207
2.31488 0.699453
2.31723 0.69941
2.31957 0.697341
2.32192 0.691869
2.32426 0.69386
2.32661 0.691017
2.32895 0.691142
2.3313 0.694749
2.33364 0.698241
2.33599 0.690722
2.33833 0.695476
2.34068 0.698417
2.34303 0.699045
2.34537 0.701167
2.34772 0.699269
2.35006 0.697006
2.35241 0.697629
2.35475 0.700423
2.3571 0.703211
2.35944 0.703832
2.36179 0.70573
2.36413 0.7042
2.36648 0.701725
2.36882 0.701684
2.37117 0.699934
2.37352 0.70049
2.37586 0.695632
2.37821 0.692992
2.38055 0.699106
2.3829 0.696571
2.38524 0.696947
2.38759 0.695566
2.38993 0.696227
2.39228 0.701018
2.39462 0.697977
2.39697 0.696141
2.39931 0.699038
2.40166 0.702949
2.404 0.704017
2.40635 0.702254
2.4087 0.704374
2.41104 0.703638
2.41339 0.699665
2.41573 0.695442
2.41808 0.701153
2.42042 0.701854
2.42277 0.703392
2.42511 0.705523
2.42746 0.707233
2.4298 0.707246
2.43215 0.708452
2.43449 0.706267
2.43684 0.704031
2.43919 0.702937
2.44153 0.698303
2.44388 0.701825
2.44622 0.707233
2.44857 0.709662
2.45091 0.709317
2.45326 0.714927
2.4556 0.711627
2.45795 0.71274
2.46029 0.716341
2.46264 0.717968
2.46498 0.710368
2.46733 0.70758
2.46968 0.715316
2.47202 0.720092
2.47437 0.719907
2.47671 0.727157
2.47906 0.726298
2.4814 0.729491
2.48375 0.730341
2.48609 0.728969
2.48844 0.732082
2.49078 0.725565
2.49313 0.729667
2.49547 0.733655
2.49782 0.735157
2.50017 0.738821
2.50251 0.746756
2.50486 0.750643
2.5072 0.753096
2.50955 0.753502
2.51189 0.749834
2.51424 0.756981
2.51658 0.769777
2.51893 0.776376
2.52127 0.775647
2.52362 0.772719
2.52596 0.771616
2.52831 0.777098
2.53066 0.786517
2.533 0.797645
2.53535 0.807473
2.53769 0.804599
2.54004 0.814987
2.54238 0.823047
2.54473 0.826811
2.54707 0.829938
2.54942 0.839227
2.55176 0.84794
2.55411 0.85481
2.55645 0.865353
2.5588 0.8833
2.56114 0.889286
2.56349 0.897535
2.56584 0.912238
2.56818 0.926393
2.57053 0.933578
2.57287 0.943443
2.57522 0.955334
2.57756 0.966687
2.57991 0.977943
2.58225 0.990991
2.5846 1.01124
2.58694 1.02606
2.58929 1.03791
2.59163 1.05099
2.59398 1.06848
2.59633 1.09013
2.59867 1.11566
2.60102 1.13902
2.60336 1.15622
2.60571 1.16761
2.60805 1.18279
2.6104 1.20067
2.61274 1.21747
2.61509 1.23831
2.61743 1.26553
2.61978 1.29538
2.62212 1.32571
2.62447 1.34689
2.62682 1.36804
2.62916 1.39474
2.63151 1.42585
2.63385 1.44952
2.6362 1.46841
2.63854 1.48518
2.64089 1.50277
2.64323 1.52445
2.64558 1.54135
2.64792 1.56161
2.65027 1.58334
2.65261 1.60246
2.65496 1.61326
2.65731 1.63247
2.65965 1.6494
2.662 1.66063
2.66434 1.66986
2.66669 1.68508
2.66903 1.68361
2.67138 1.67608
2.67372 1.66967
2.67607 1.66589
2.67841 1.66222
2.68076 1.64739
2.6831 1.63323
2.68545 1.61368
2.68779 1.59078
2.69014 1.56966
2.69249 1.54565
2.69483 1.51789
2.69718 1.50005
2.69952 1.48638
2.70187 1.4649
2.70421 1.43131
2.70656 1.4035
2.7089 1.38061
2.71125 1.35951
2.71359 1.3361
2.71594 1.30512
2.71828 1.28238
2.72063 1.25805
2.72298 1.23623
2.72532 1.22111
2.72767 1.20655
2.73001 1.17588
2.73236 1.14941
2.7347 1.12741
2.73705 1.10761
2.73939 1.08989
2.74174 1.07501
2.74408 1.06382
2.74643 1.05346
2.74877 1.04032
2.75112 1.01984
2.75347 1.00875
2.75581 0.991674
2.75816 0.97829
2.7605 0.971707
2.76285 0.960813
2.76519 0.951779
2.76754 0.940121
2.76988 0.929558
2.77223 0.920697
2.77457 0.909634
2.77692 0.90286
2.77926 0.893575
2.78161 0.882329
2.78396 0.872228
2.7863 0.86868
2.78865 0.869253
2.79099 0.862773
2.79334 0.852844
2.79568 0.842335
2.79803 0.833471
2.80037 0.826524
2.80272 0.822472
2.80506 0.816473
2.80741 0.810004
2.80975 0.807762
2.8121 0.807386
2.81444 0.795653
2.81679 0.789126
2.81914 0.787872
2.82148 0.785675
2.82383 0.78611
2.82617 0.780789
2.82852 0.774614
2.83086 0.770123
2.83321 0.768603
2.83555 0.768572
2.8379 0.764342
2.84024 0.760756
2.84259 0.755791
2.84493 0.749023
2.84728 0.753824
2.84963 0.75194
2.85197 0.748571
2.85432 0.744985
2.85666 0.74099
2.85901 0.733722
2.86135 0.729847
2.8637 0.733704
2.86604 0.739366
2.86839 0.740504
2.87073 0.732403
2.87308 0.730114
2.87542 0.729335
2.87777 0.727681
2.88012 0.725847
2.88246 0.729482
2.88481 0.729373
2.88715 0.72776
2.8895 0.728748
2.89184 0.73109
2.89419 0.726968
2.89653 0.72262
2.89888 0.712643
2.90122 0.713733
2.90357 0.722754
2.90591 0.719112
2.90826 0.720519
2.91061 0.718668
2.91295 0.719001
2.9153 0.720714
2.91764 0.719286
2.91999 0.719267
2.92233 0.718709
2.92468 0.718021
2.92702 0.718085
2.92937 0.719386
2.93171 0.716262
2.93406 0.717528
2.9364 0.719866
2.93875 0.720365
2.94109 0.717374
2.94344 0.716232
2.94579 0.721376
2.94813 0.723561
2.95048 0.721105
2.95282 0.715816
2.95517 0.715823
2.95751 0.719159
2.95986 0.717544
2.9622 0.715087
2.96455 0.71498
2.96689 0.711157
2.96924 0.711801
2.97158 0.71086
2.97393 0.708081
2.97628 0.705586
2.97862 0.70923
2.98097 0.70875
2.98331 0.707935
2.98566 0.711081
2.988 0.717859
2.99035 0.721
2.99269 0.713368
2.99504 0.710872
2.99738 0.713748
2.99973 0.718046
3.00207 0.716082
3.00442 0.726224
3.00677 0.722673
3.00911 0.720003
3.01146 0.722454
3.0138 0.725895
3.01615 0.724246
3.01849 0.719874
3.02084 0.721727
3.02318 0.727514
3.02553 0.729169
3.02787 0.725244
3.03022 0.724173
3.03256 0.729942
3.03491 0.735956
3.03726 0.734468
3.0396 0.738705
3.04195 0.74424
3.04429 0.744872
3.04664 0.743731
3.04898 0.744807
3.05133 0.744433
3.05367 0.747188
3.05602 0.748166
3.05836 0.749399
3.06071 0.752191
3.06305 0.75198
3.0654 0.754809
3.06774 0.76184
3.07009 0.76899
3.07244 0.772493
3.07478 0.770275
3.07713 0.776355
3.07947 0.782546
3.08182 0.784528
3.08416 0.783659
3.08651 0.788924
3.08885 0.796415
3.0912 0.800925
3.09354 0.804712
3.09589 0.808054
3.09823 0.809192
3.10058 0.810072
3.10293 0.81149
3.10527 0.812625
3.10762 0.814304
3.10996 0.818501
3.11231 0.827758
3.11465 0.839821
3.117 0.847027
3.11934 0.850317
3.12169 0.854259
3.12403 0.85833
3.12638 0.860758
3.12872 0.868114
3.13107 0.874423
3.13342 0.873608
3.13576 0.880144
3.13811 0.890335
3.14045 0.897614
3.1428 0.899059
3.14514 0.896202
3.14749 0.902601
3.14983 0.902491
3.15218 0.906936
3.15452 0.912833
3.15687 0.915978
3.15921 0.913659
3.16156 0.912829
3.16391 0.910394
3.16625 0.909025
3.1686 0.910166
3.17094 0.912863
3.17329 0.918143
3.17563 0.91923
3.17798 0.917873
3.18032 0.916621
3.18267 0.918268
3.18501 0.909764
3.18736 0.90984
3.1897 0.916715
3.19205 0.923137
3.19439 0.919096
3.19674 0.910248
3.19909 0.906428
3.20143 0.90484
3.20378 0.907272
3.20612 0.916801
3.20847 0.931541
3.21081 0.925411
3.21316 0.913019
3.2155 0.908884
3.21785 0.920834
3.22019 0.924962
3.22254 0.931391
3.22488 0.937562
3.22723 0.9461
3.22958 0.956466
3.23192 0.955516
3.23427 0.959497
3.23661 0.966299
3.23896 0.976053
3.2413 0.988508
3.24365 1.00246
3.24599 1.00814
3.24834 1.01102
3.25068 1.0193
3.25303 1.03329
3.25537 1.04304
3.25772 1.04942
3.26007 1.06229
3.26241 1.07693
3.26476 1.09295
3.2671 1.11351
3.26945 1.1338
3.27179 1.14756
3.27414 1.15948
3.27648 1.16955
3.27883 1.17692
3.28117 1.19943
3.28352 1.22362
3.28586 1.23965
3.28821 1.2526
3.29056 1.27087
3.2929 1.29038
3.29525 1.30795
3.29759 1.32934
3.29994 1.35387
3.30228 1.37762
3.30463 1.39051
3.30697 1.41694
3.30932 1.43649
3.31166 1.46327
3.31401 1.50012
3.31635 1.51617
3.3187 1.54672
3.32104 1.58035
3.32339 1.61759
3.32574 1.65277
3.32808 1.67104
3.33043 1.70866
3.33277 1.74202
3.33512 1.77774
3.33746 1.81291
3.33981 1.83741
3.34215 1.88386
3.3445 1.92177
3.34684 1.96406
3.34919 2.01499
3.35153 2.07063
3.35388 2.09432
3.35623 2.14627
3.35857 2.19886
3.36092 2.24873
3.36326 2.29947
3.36561 2.34569
3.36795 2.38325
3.3703 2.42989
3.37264 2.47514
3.37499 2.51088
3.37733 2.55636
3.37968 2.58862
3.38202 2.62251
3.38437 2.64225
3.38672 2.64528
3.38906 2.66184
3.39141 2.65491
3.39375 2.65116
3.3961 2.64175
3.39844 2.61371
3.40079 2.55184
3.40313 2.5166
3.40548 2.46207
3.40782 2.38874
3.41017 2.30251
3.41251 2.2141
3.41486 2.14452
3.41721 2.07256
3.41955 1.99518
3.4219 1.91743
3.42424 1.84837
3.42659 1.79787
3.42893 1.72048
3.43128 1.65737
3.43362 1.60368
3.43597 1.54636
3.43831 1.49785
3.44066 1.46248
3.443 1.42958
3.44535 1.38877
3.44769 1.33939
3.45004 1.30551
3.45239 1.28463
3.45473 1.25377
3.45708 1.22447
3.45942 1.20197
3.46177 1.1773
3.46411 1.15499
3.46646 1.13786
3.4688 1.12388
3.47115 1.11042
3.47349 1.09484
3.47584 1.08717
3.47818 1.07311
3.48053 1.06018
3.48288 1.05194
3.48522 1.04904
3.48757 1.04812
3.48991 1.04622
3.49226 1.03963
3.4946 1.03479
3.49695 1.0385
3.49929 1.04059
3.50164 1.03583
3.50398 1.02761
3.50633 1.02263
3.50867 1.02433
3.51102 1.0247
3.51337 1.03246
3.51571 1.04168
3.51806 1.04531
3.5204 1.04173
3.52275 1.03871
3.52509 1.0412
3.52744 1.0416
3.52978 1.0458
3.53213 1.05179
3.53447 1.04942
3.53682 1.04661
3.53916 1.03721
3.54151 1.03401
3.54386 1.036
3.5462 1.03341
3.54855 1.01795
3.55089 1.00837
3.55324 1.00493
3.55558 1.0004
3.55793 0.986875
3.56027 0.967554
3.56262 0.950782
3.56496 0.945601
3.56731 0.939401
3.56965 0.922974
3.572 0.910407
3.57434 0.898146
3.57669 0.887505
3.57904 0.875473
3.58138 0.862353
3.58373 0.85477
3.58607 0.842073
3.58842 0.83301
3.59076 0.826072
3.59311 0.822157
3.59545 0.824251
3.5978 0.814578
3.60014 0.806676
3.60249 0.800779
3.60483 0.799206
3.60718 0.80371
3.60953 0.799414
3.61187 0.791645
3.61422 0.781523
3.61656 0.775251
3.61891 0.777786
3.62125 0.780583
3.6236 0.784636
3.62594 0.779519
3.62829 0.771148
3.63063 0.766186
3.63298 0.765335
3.63532 0.770043
3.63767 0.770183
3.64002 0.767372
3.64236 0.763911
3.64471 0.761568
3.64705 0.764423
3.6494 0.776156
3.65174 0.78127
3.65409 0.777907
3.65643 0.775967
3.65878 0.777177
3.66112 0.779218
3.66347 0.783599
3.66581 0.788517
3.66816 0.791265
3.67051 0.794564
3.67285 0.797554
3.6752 0.800622
3.67754 0.80377
3.67989 0.807365
3.68223 0.813544
3.68458 0.814608
3.68692 0.821259
3.68927 0.832788
3.69161 0.844484
3.69396 0.846918
3.6963 0.852795
3.69865 0.857252
3.70099 0.861404
3.70334 0.867102
3.70569 0.87644
3.70803 0.881626
3.71038 0.892131
3.71272 0.900811
3.71507 0.910983
3.71741 0.930339
3.71976 0.941657
3.7221 0.949841
3.72445 0.951878
3.72679 0.957578
3.72914 0.974669
3.73148 0.979273
3.73383 0.976596
3.73618 0.98604
3.73852 1.00059
3.74087 1.0127
3.74321 1.02588
3.74556 1.02757
3.7479 1.02896
3.75025 1.02998
3.75259 1.03431
3.75494 1.05147
3.75728 1.06483
3.75963 1.06685
3.76197 1.07395
3.76432 1.08746
3.76667 1.09676
3.76901 1.09196
3.77136 1.08474
3.7737 1.0828
3.77605 1.08237
3.77839 1.07856
3.78074 1.08836
3.78308 1.08257
3.78543 1.07527
3.78777 1.0758
3.79012 1.08442
3.79246 1.07841
3.79481 1.0705
3.79716 1.05692
3.7995 1.04599
3.80185 1.04218
3.80419 1.04229
3.80654 1.02842
3.80888 1.00769
3.81123 0.994953
3.81357 0.991342
3.81592 0.986262
3.81826 0.971893
3.82061 0.953394
3.82295 0.940642
3.8253 0.937349
3.82765 0.941558
3.82999 0.935076
3.83234 0.935317
3.83468 0.924113
3.83703 0.909996
3.83937 0.902879
3.84172 0.89808
3.84406 0.882074
3.84641 0.879192
3.84875 0.88097
3.8511 0.876403
3.85344 0.856136
3.85579 0.850208
3.85813 0.849812
3.86048 0.845748
3.86283 0.835804
3.86517 0.824031
3.86752 0.815506
3.86986 0.810331
3.87221 0.809532
3.87455 0.806033
3.8769 0.793073
3.87924 0.787667
3.88159 0.789549
3.88393 0.786534
3.88628 0.783255
3.88862 0.786025
3.89097 0.795474
3.89332 0.786034
3.89566 0.774988
3.89801 0.765064
3.90035 0.755868
3.9027 0.744313
3.90504 0.751732
3.90739 0.757973
3.90973 0.761401
3.91208 0.759671
3.91442 0.750697
3.91677 0.743445
3.91911 0.746466
3.92146 0.752144
3.92381 0.7556
3.92615 0.754642
3.9285 0.755411
3.93084 0.750218
3.93319 0.747376
3.93553 0.746084
3.93788 0.745352
3.94022 0.748306
3.94257 0.751265
3.94491 0.754916
3.94726 0.756304
3.9496 0.752851
3.95195 0.743099
3.9543 0.745992
3.95664 0.737429
3.95899 0.738076
3.96133 0.748989
3.96368 0.758044
3.96602 0.757854
3.96837 0.76146
3.97071 0.760837
3.97306 0.758355
3.9754 0.75721
3.97775 0.748961
3.98009 0.758622
3.98244 0.765115
3.98478 0.765219
3.98713 0.762236
3.98948 0.767002
3.99182 0.768085
3.99417 0.768816
3.99651 0.770996
3.99886 0.775275
4.0012 0.781114
4.00355 0.787443
4.00589 0.784931
4.00824 0.785342
4.01058 0.787009
4.01293 0.783598
4.01527 0.785604
4.01762 0.790317
4.01997 0.792197
4.02231 0.79239
4.02466 0.791818
4.027 0.78536
4.02935 0.788444
4.03169 0.798577
4.03404 0.806883
4.03638 0.808485
4.03873 0.805597
4.04107 0.807615
4.04342 0.815339
4.04576 0.816873
4.04811 0.813099
4.05046 0.814148
4.0528 0.822217
4.05515 0.822328
4.05749 0.82213
4.05984 0.821097
4.06218 0.817469
4.06453 0.81709
4.06687 0.825823
4.06922 0.835761
4.07156 0.845362
4.07391 0.852374
4.07625 0.851045
4.0786 0.8365
4.08095 0.838149
4.08329 0.835952
4.08564 0.824264
4.08798 0.814546
4.09033 0.816755
4.09267 0.819628
4.09502 0.825622
4.09736 0.832099
4.09971 0.835327
4.10205 0.84108
4.1044 0.841687
4.10674 0.836783
4.10909 0.830396
4.11143 0.827567
4.11378 0.83322
4.11613 0.828367
4.11847 0.817513
4.12082 0.814041
4.12316 0.820064
4.12551 0.822251
4.12785 0.813443
4.1302 0.809148
4.13254 0.810043
4.13489 0.812745
4.13723 0.81218
4.13958 0.81106
4.14192 0.807424
4.14427 0.800981
4.14662 0.795209
4.14896 0.792311
4.15131 0.786053
4.15365 0.795438
4.156 0.799372
4.15834 0.794726
4.16069 0.786407
4.16303 0.788206
4.16538 0.784438
4.16772 0.797279
4.17007 0.801318
4.17241 0.794538
4.17476 0.792822
4.17711 0.79671
4.17945 0.801416
4.1818 0.804712
4.18414 0.806666
4.18649 0.808318
4.18883 0.811175
4.19118 0.797905
4.19352 0.80553
4.19587 0.812355
4.19821 0.805858
4.20056 0.806632
4.2029 0.801514
4.20525 0.80925
4.2076 0.81385
4.20994 0.812919
4.21229 0.816562
4.21463 0.824446
4.21698 0.819066
4.21932 0.821756
4.22167 0.827645
4.22401 0.828505
4.22636 0.852642
4.2287 0.860118
4.23105 0.856922
4.23339 0.858011
4.23574 0.870828
4.23808 0.8842
4.24043 0.909126
4.24278 0.923185
4.24512 0.938932
4.24747 0.954183
4.24981 0.953162
4.25216 0.950857
4.2545 0.964362
4.25685 0.98928
4.25919 1.01606
4.26154 1.03496
4.26388 1.04688
4.26623 1.0861
4.26857 1.11313
4.27092 1.13922
4.27327 1.1719
4.27561 1.19139
4.27796 1.21536
4.2803 1.2376
4.28265 1.27264
4.28499 1.31566
4.28734 1.34362
4.28968 1.35772
4.29203 1.37824
4.29437 1.40756
4.29672 1.44634
4.29906 1.49202
4.30141 1.5307
4.30376 1.56035
4.3061 1.59672
4.30845 1.63701
4.31079 1.67073
4.31314 1.67859
4.31548 1.70444
4.31783 1.72346
4.32017 1.7426
4.32252 1.76536
4.32486 1.78971
4.32721 1.80068
4.32955 1.83046
4.3319 1.85507
4.33425 1.87088
4.33659 1.87914
4.33894 1.86078
4.34128 1.86447
4.34363 1.88876
4.34597 1.90735
4.34832 1.90842
4.35066 1.91676
4.35301 1.95523
4.35535 1.98484
4.3577 2.02855
4.36004 2.07077
4.36239 2.06723
4.36473 2.06124
4.36708 2.09816
4.36943 2.12674
4.37177 2.13749
4.37412 2.13687
4.37646 2.12871
4.37881 2.09216
4.38115 2.04796
4.3835 1.98323
4.38584 1.9021
4.38819 1.84436
4.39053 1.7669
4.39288 1.69292
4.39522 1.61597
4.39757 1.53741
4.39992 1.4661
4.40226 1.42499
4.40461 1.39077
4.40695 1.35499
4.4093 1.31727
4.41164 1.28025
4.41399 1.24802
4.41633 1.22365
4.41868 1.21188
4.42102 1.2045
4.42337 1.19166
4.42571 1.1645
4.42806 1.16497
4.43041 1.16288
4.43275 1.1536
4.4351 1.1442
4.43744 1.14684
4.43979 1.15675
4.44213 1.14816
4.44448 1.14345
4.44682 1.14444
4.44917 1.14703
4.45151 1.14573
4.45386 1.16987
4.4562 1.17838
4.45855 1.18343
4.4609 1.19329
4.46324 1.20611
4.46559 1.20386
4.46793 1.21612
4.47028 1.22332
4.47262 1.22503
4.47497 1.23019
4.47731 1.24601
4.47966 1.25458
4.482 1.25338
4.48435 1.25349
4.48669 1.26114
4.48904 1.26692
4.49138 1.26822
4.49373 1.27126
4.49608 1.27295
4.49842 1.27059
4.50077 1.26324
4.50311 1.26274
4.50546 1.26118
4.5078 1.24944
4.51015 1.23627
4.51249 1.22976
4.51484 1.21072
4.51718 1.20438
4.51953 1.19922
4.52187 1.19594
4.52422 1.19464
4.52657 1.19257
4.52891 1.18293
4.53126 1.17447
4.5336 1.1578
4.53595 1.13722
4.53829 1.12549
4.54064 1.13415
4.54298 1.12548
4.54533 1.12426
4.54767 1.12169
4.55002 1.10671
4.55236 1.08316
4.55471 1.08546
4.55706 1.0766
4.5594 1.06394
4.56175 1.05207
4.56409 1.03977
4.56644 1.02863
4.56878 1.0222
4.57113 1.01129
4.57347 1.00216
4.57582 1.00389
4.57816 1.01016
4.58051 0.990448
4.58285 0.983715
4.5852 0.98018
4.58755 0.971587
4.58989 0.963905
4.59224 0.956206
4.59458 0.951897
4.59693 0.940393
4.59927 0.929721
4.60162 0.935155
4.60396 0.928309
4.60631 0.917378
4.60865 0.911659
4.611 0.916884
4.61334 0.930743
4.61569 0.933278
4.61803 0.930472
4.62038 0.919858
4.62273 0.913401
4.62507 0.913019
4.62742 0.9098
4.62976 0.90861
4.63211 0.915701
4.63445 0.919234
4.6368 0.91967
4.63914 0.919111
4.64149 0.904289
4.64383 0.913493
4.64618 0.911173
4.64852 0.912662
4.65087 0.924995
4.65322 0.932207
4.65556 0.925999
4.65791 0.923605
4.66025 0.931812
4.6626 0.945978
4.66494 0.954856
4.66729 0.950599
4.66963 0.960709
4.67198 0.974474
4.67432 0.987221
4.67667 0.995072
4.67901 0.993143
4.68136 1.01478
4.68371 1.01703
4.68605 1.02391
4.6884 1.04217
4.69074 1.06049
4.69309 1.07424
4.69543 1.08116
4.69778 1.0966
4.70012 1.1154
4.70247 1.128
4.70481 1.13361
4.70716 1.17161
4.7095 1.18766
4.71185 1.19568
4.7142 1.21094
4.71654 1.24021
4.71889 1.26049
4.72123 1.27571
4.72358 1.29853
4.72592 1.33744
4.72827 1.38997
4.73061 1.41292
4.73296 1.42468
4.7353 1.4467
4.73765 1.47832
4.73999 1.51312
4.74234 1.5418
4.74468 1.57476
4.74703 1.60407
4.74938 1.63371
4.75172 1.66824
4.75407 1.70751
4.75641 1.71656
4.75876 1.74499
4.7611 1.78748
4.76345 1.82466
4.76579 1.84806
4.76814 1.88087
4.77048 1.90979
4.77283 1.93882
4.77517 1.96939
4.77752 1.99095
4.77987 1.98787
4.78221 1.99156
4.78456 2.01145
4.7869 2.01988
4.78925 2.01272
4.79159 1.99695
4.79394 1.9892
4.79628 1.98318
4.79863 1.97818
4.80097 1.97525
4.80332 1.96589
4.80566 1.93441
4.80801 1.90998
4.81036 1.86969
4.8127 1.81761
4.81505 1.77105
4.81739 1.73993
4.81974 1.68706
4.82208 1.64862
4.82443 1.61626
4.82677 1.57744
4.82912 1.53038
4.83146 1.48747
4.83381 1.44187
4.83615 1.41023
4.8385 1.36715
4.84085 1.31965
4.84319 1.28568
4.84554 1.2583
4.84788 1.21568
4.85023 1.18436
4.85257 1.1603
4.85492 1.13883
4.85726 1.1218
4.85961 1.09819
4.86195 1.07125
4.8643 1.04416
4.86664 1.01941
4.86899 0.999667
4.87133 0.992765
4.87368 0.973452
4.87603 0.959057
4.87837 0.943651
4.88072 0.924537
4.88306 0.912708
4.88541 0.904328
4.88775 0.892025
4.8901 0.87402
4.89244 0.856157
4.89479 0.84752
4.89713 0.846025
4.89948 0.852524
4.90182 0.845631
4.90417 0.834264
4.90652 0.827697
4.90886 0.821245
4.91121 0.812636
4.91355 0.807153
4.9159 0.800319
4.91824 0.792764
4.92059 0.788508
4.92293 0.78533
4.92528 0.777697
4.92762 0.768396
4.92997 0.764195
4.93231 0.765859
4.93466 0.758318
4.93701 0.748252
4.93935 0.74663
4.9417 0.74507
4.94404 0.739835
4.94639 0.733412
4.94873 0.742179
4.95108 0.745072
4.95342 0.746944
4.95577 0.744745
4.95811 0.735937
4.96046 0.724257
4.9628 0.725997
4.96515 0.731769
4.9675 0.738872
4.96984 0.741713
4.97219 0.73446
4.97453 0.733482
4.97688 0.732455
4.97922 0.725684
4.98157 0.715909
4.98391 0.70906
4.98626 0.712523
4.9886 0.708917
4.99095 0.709565
4.99329 0.713178
4.99564 0.718617
4.99799 0.724453
5.00033 0.715973
5.00268 0.711414
5.00502 0.717528
5.00737 0.723689
5.00971 0.720773
5.01206 0.717487
5.0144 0.708068
5.01675 0.714393
5.01909 0.721157
5.02144 0.723341
5.02378 0.726553
5.02613 0.724709
5.02847 0.725751
5.03082 0.72124
5.03317 0.713135
5.03551 0.707294
5.03786 0.711214
5.0402 0.714064
5.04255 0.727109
5.04489 0.739617
5.04724 0.742797
5.04958 0.732326
5.05193 0.712447
5.05427 0.714823
5.05662 0.723463
5.05896 0.729347
5.06131 0.729821
5.06366 0.733116
5.066 0.725312
5.06835 0.722723
5.07069 0.725471
5.07304 0.730077
5.07538 0.731677
5.07773 0.732596
5.08007 0.733565
5.08242 0.722896
5.08476 0.714222
5.08711 0.72027
5.08945 0.736364
5.0918 0.734101
5.09415 0.737585
5.09649 0.739791
5.09884 0.738326
5.10118 0.735783
5.10353 0.737809
5.10587 0.75047
5.10822 0.751916
5.11056 0.749564
5.11291 0.752206
5.11525 0.75697
5.1176 0.762369
5.11994 0.767301
5.12229 0.767508
5.12464 0.766639
5.12698 0.771083
5.12933 0.769726
5.13167 0.767498
5.13402 0.776343
5.13636 0.783991
5.13871 0.783554
5.14105 0.786404
5.1434 0.797006
5.14574 0.800156
5.14809 0.79484
5.15043 0.791948
5.15278 0.804113
5.15512 0.818373
5.15747 0.824042
5.15982 0.827677
5.16216 0.830365
5.16451 0.834278
5.16685 0.843979
5.1692 0.854161
5.17154 0.866797
5.17389 0.864485
5.17623 0.865454
5.17858 0.888562
5.18092 0.879461
5.18327 0.874622
5.18561 0.886485
5.18796 0.896206
5.19031 0.893487
5.19265 0.885078
5.195 0.888662
5.19734 0.904677
5.19969 0.911943
5.20203 0.910178
5.20438 0.908985
5.20672 0.92121
5.20907 0.906795
5.21141 0.902338
5.21376 0.903914
5.2161 0.903815
5.21845 0.896806
5.2208 0.907099
5.22314 0.906317
5.22549 0.90347
5.22783 0.900376
5.23018 0.897311
5.23252 0.896365
5.23487 0.8859
5.23721 0.886557
5.23956 0.894262
5.2419 0.902398
5.24425 0.90523
5.24659 0.908955
5.24894 0.898922
5.25129 0.89341
5.25363 0.895621
5.25598 0.901503
5.25832 0.90055
5.26067 0.893987
5.26301 0.902022
5.26536 0.918685
5.2677 0.929967
5.27005 0.922403
5.27239 0.9061
5.27474 0.909245
5.27708 0.915746
5.27943 0.920046
5.28177 0.924318
5.28412 0.938665
5.28647 0.949419
5.28881 0.954557
5.29116 0.962492
5.2935 0.965323
5.29585 0.956088
5.29819 0.958376
5.30054 0.971405
5.30288 0.980709
5.30523 0.984567
5.30757 0.986242
5.30992 0.992433
5.31226 1.00644
5.31461 1.01244
5.31696 1.01452
5.3193 1.01243
5.32165 1.00873
5.32399 1.01581
5.32634 1.02442
5.32868 1.03016
5.33103 1.03176
5.33337 1.03248
5.33572 1.03759
5.33806 1.04436
5.34041 1.0484
5.34275 1.05287
5.3451 1.05688
5.34745 1.05968
5.34979 1.06225
5.35214 1.04236
5.35448 1.03678
5.35683 1.03206
5.35917 1.02864
5.36152 1.03059
5.36386 1.02432
5.36621 1.02372
5.36855 1.02599
5.3709 1.03224
5.37324 1.03849
5.37559 1.0361
5.37794 1.03933
5.38028 1.03772
5.38263 1.03323
5.38497 1.02786
5.38732 1.02219
5.38966 1.01304
5.39201 1.02002
5.39435 1.0214
5.3967 1.01374
5.39904 1.00497
5.40139 1.00761
5.40373 1.01066
5.40608 1.00399
5.40842 1.00705
5.41077 1.0099
5.41312 1.00351
5.41546 0.991502
5.41781 0.996744
5.42015 1.00726
5.4225 1.01141
5.42484 1.00488
5.42719 0.991229
5.42953 0.988397
5.43188 0.963924
5.43422 0.951801
5.43657 0.952673
5.43891 0.953731
5.44126 0.936987
5.44361 0.940735
5.44595 0.944488
5.4483 0.94347
5.45064 0.938396
5.45299 0.932917
5.45533 0.933016
5.45768 0.932604
5.46002 0.933872
5.46237 0.930604
5.46471 0.928703
5.46706 0.936263
5.4694 0.928219
5.47175 0.932424
5.4741 0.940376
5.47644 0.950566
5.47879 0.962094
5.48113 0.973456
5.48348 0.977942
5.48582 0.986863
5.48817 1.00602
5.49051 1.02933
5.49286 1.04823
5.4952 1.06094
5.49755 1.08666
5.49989 1.11358
5.50224 1.1375
5.50459 1.15752
5.50693 1.17768
5.50928 1.22068
5.51162 1.26695
5.51397 1.31698
5.51631 1.3626
5.51866 1.39649
5.521 1.41715
5.52335 1.48111
5.52569 1.53706
5.52804 1.57685
5.53038 1.61534
5.53273 1.65991
5.53507 1.65555
5.53742 1.66028
5.53977 1.67447
5.54211 1.68539
5.54446 1.68242
5.5468 1.65952
5.54915 1.61263
5.55149 1.57316
5.55384 1.52977
5.55618 1.48373
5.55853 1.4407
5.56087 1.40792
5.56322 1.35312
5.56556 1.30969
5.56791 1.27089
5.57026 1.23715
5.5726 1.20994
5.57495 1.18094
5.57729 1.15202
5.57964 1.12394
5.58198 1.10404
5.58433 1.08697
5.58667 1.05864
5.58902 1.04143
5.59136 1.03952
5.59371 1.04401
5.59605 1.04125
5.5984 1.02882
5.60075 1.0262
5.60309 1.03442
5.60544 1.02847
5.60778 1.02786
5.61013 1.02917
5.61247 1.02265
5.61482 1.0206
5.61716 1.023
5.61951 1.01995
5.62185 1.01904
5.6242 1.02175
5.62654 1.02302
5.62889 1.02756
5.63124 1.01667
5.63358 1.00807
5.63593 0.997833
5.63827 0.982829
5.64062 0.970195
5.64296 0.957882
5.64531 0.941329
5.64765 0.937494
5.65 0.937366
5.65234 0.922207
5.65469 0.88345
5.65703 0.877655
5.65938 0.870224
5.66172 0.859125
5.66407 0.844735
5.66642 0.827104
5.66876 0.803151
5.67111 0.79138
5.67345 0.786007
5.6758 0.782567
5.67814 0.777592
5.68049 0.76933
5.68283 0.757249
5.68518 0.757776
5.68752 0.76055
5.68987 0.76276
5.69221 0.761959
5.69456 0.747194
5.69691 0.745428
5.69925 0.738439
5.7016 0.735536
5.70394 0.737049
5.70629 0.735063
5.70863 0.720133
5.71098 0.730709
5.71332 0.736
5.71567 0.73676
5.71801 0.732886
5.72036 0.718457
5.7227 0.717582
5.72505 0.710963
5.7274 0.714058
5.72974 0.72292
5.73209 0.727528
5.73443 0.720025
5.73678 0.719391
5.73912 0.716199
5.74147 0.718715
5.74381 0.720923
5.74616 0.714769
5.7485 0.720767
5.75085 0.716935
5.75319 0.716609
5.75554 0.717611
5.75789 0.716153
5.76023 0.71014
5.76258 0.709973
5.76492 0.701628
5.76727 0.696537
5.76961 0.697987
5.77196 0.701094
5.7743 0.692212
5.77665 0.691518
5.77899 0.690411
5.78134 0.686419
5.78368 0.68393
5.78603 0.687159
5.78837 0.691306
5.79072 0.682204
5.79307 0.676593
5.79541 0.679302
5.79776 0.694875
5.8001 0.7195
5.80245 0.70354
5.80479 0.689894
5.80714 0.685266
5.80948 0.686016
5.81183 0.687986
5.81417 0.688855
5.81652 0.68763
5.81886 0.678416
5.82121 0.675024
5.82356 0.677878
5.8259 0.680881
5.82825 0.674046
5.83059 0.66386
5.83294 0.666964
5.83528 0.678075
5.83763 0.687478
5.83997 0.689351
5.84232 0.695748
5.84466 0.682299
5.84701 0.681594
5.84935 0.680907
5.8517 0.676792
5.85405 0.675815
5.85639 0.685165
5.85874 0.692842
5.86108 0.694126
5.86343 0.695209
5.86577 0.693657
5.86812 0.677942
5.87046 0.679028
5.87281 0.689589
5.87515 0.685371
5.8775 0.682761
5.87984 0.692669
5.88219 0.693849
5.88454 0.695484
5.88688 0.699178
5.88923 0.699438
5.89157 0.702335
5.89392 0.71196
5.89626 0.710032
5.89861 0.722043
5.90095 0.714973
5.9033 0.709117
5.90564 0.713916
5.90799 0.725307
5.91033 0.72698
5.91268 0.720579
5.91502 0.732168
5.91737 0.747841
5.91972 0.753236
5.92206 0.74368
5.92441 0.742912
5.92675 0.748111
5.9291 0.754235
5.93144 0.762662
5.93379 0.773094
5.93613 0.780119
5.93848 0.773032
5.94082 0.780377
5.94317 0.783514
5.94551 0.781855
5.94786 0.783254
5.95021 0.797345
5.95255 0.79929
5.9549 0.814852
5.95724 0.813179
5.95959 0.801075
5.96193 0.803473
5.96428 0.822326
5.96662 0.829464
5.96897 0.831475
5.97131 0.829998
5.97366 0.828826
5.976 0.831079
5.97835 0.822598
5.9807 0.825921
5.98304 0.841421
5.98539 0.848704
5.98773 0.845574
5.99008 0.854632
5.99242 0.870241
5.99477 0.856148
5.99711 0.857473
5.99946 0.866438
6.0018 0.867351
6.00415 0.858795
6.00649 0.867911
6.00884 0.872876
6.01119 0.865014
6.01353 0.86578
6.01588 0.888942
6.01822 0.89748
6.02057 0.885767
6.02291 0.877875
6.02526 0.880167
6.0276 0.884862
6.02995 0.881773
6.03229 0.882437
6.03464 0.884525
6.03698 0.88327
6.03933 0.87163
6.04167 0.864244
6.04402 0.881878
6.04637 0.877809
6.04871 0.884566
6.05106 0.885378
6.0534 0.88303
6.05575 0.883484
6.05809 0.890608
6.06044 0.890316
6.06278 0.88571
6.06513 0.885959
6.06747 0.896995
6.06982 0.912187
6.07216 0.909896
6.07451 0.907914
6.07686 0.917527
6.0792 0.92516
6.08155 0.925732
6.08389 0.922171
6.08624 0.926616
6.08858 0.929604
6.09093 0.918979
6.09327 0.918836
6.09562 0.925405
6.09796 0.928313
6.10031 0.939487
6.10265 0.934728
6.105 0.932739
6.10735 0.928469
6.10969 0.927393
6.11204 0.935899
6.11438 0.934236
6.11673 0.938852
6.11907 0.950143
6.12142 0.960547
6.12376 0.958274
6.12611 0.936495
6.12845 0.929045
6.1308 0.93297
6.13314 0.928506
6.13549 0.924076
6.13784 0.922209
6.14018 0.915812
6.14253 0.913617
6.14487 0.900077
6.14722 0.898133
6.14956 0.905722
6.15191 0.908527
6.15425 0.888285
6.1566 0.887057
6.15894 0.880707
6.16129 0.874177
6.16363 0.863783
6.16598 0.854674
6.16832 0.869454
6.17067 0.866029
6.17302 0.857829
6.17536 0.857543
6.17771 0.854909
6.18005 0.844292
6.1824 0.850667
6.18474 0.837616
6.18709 0.820088
6.18943 0.815352
6.19178 0.817101
6.19412 0.814174
6.19647 0.817682
6.19881 0.818748
6.20116 0.816965
6.20351 0.816515
6.20585 0.811866
6.2082 0.798777
6.21054 0.801103
6.21289 0.790014
6.21523 0.78613
6.21758 0.791408
6.21992 0.796918
6.22227 0.792243
6.22461 0.793552
6.22696 0.775858
6.2293 0.776235
6.23165 0.783411
6.234 0.787473
6.23634 0.787401
6.23869 0.790338
6.24103 0.772592
6.24338 0.766505
6.24572 0.76823
6.24807 0.769453
6.25041 0.764936
6.25276 0.754534
6.2551 0.757792
6.25745 0.763225
6.25979 0.760777
6.26214 0.749423
6.26449 0.739059
6.26683 0.731614
6.26918 0.741855
6.27152 0.754782
6.27387 0.756585
6.27621 0.747565
6.27856 0.747716
6.2809 0.751966
6.28325 0.750936
6.28559 0.751693
6.28794 0.75535
6.29028 0.762405
6.29263 0.775144
6.29498 0.765036
6.29732 0.757833
6.29967 0.755075
6.30201 0.752298
6.30436 0.748771
6.3067 0.756046
6.30905 0.775157
6.31139 0.770075
6.31374 0.771276
6.31608 0.765223
6.31843 0.743158
6.32077 0.757405
6.32312 0.759433
6.32546 0.758666
6.32781 0.757372
6.33016 0.754232
6.3325 0.751488
6.33485 0.766423
6.33719 0.778464
6.33954 0.786967
6.34188 0.786923
6.34423 0.784529
6.34657 0.787211
6.34892 0.784745
6.35126 0.774367
6.35361 0.761199
6.35595 0.758714
6.3583 0.76172
6.36065 0.756408
6.36299 0.744535
6.36534 0.749765
6.36768 0.764437
6.37003 0.775931
6.37237 0.778042
6.37472 0.770351
6.37706 0.752348
6.37941 0.761503
6.38175 0.76175
6.3841 0.760257
6.38644 0.766141
6.38879 0.780264
6.39114 0.774693
6.39348 0.75847
6.39583 0.756673
6.39817 0.758762
6.40052 0.76321
6.40286 0.776166
6.40521 0.783778
6.40755 0.784949
6.4099 0.76964
6.41224 0.750194
6.41459 0.741005
6.41693 0.749786
6.41928 0.757686
6.42163 0.741621
6.42397 0.741693
6.42632 0.743189
6.42866 0.742027
6.43101 0.749611
6.43335 0.759101
6.4357 0.745192
6.43804 0.747385
6.44039 0.751352
6.44273 0.752554
6.44508 0.759824
6.44742 0.741109
6.44977 0.740818
6.45211 0.737067
6.45446 0.731788
6.45681 0.730688
6.45915 0.736675
6.4615 0.736379
6.46384 0.740509
6.46619 0.738657
6.46853 0.739283
6.47088 0.745592
6.47322 0.751147
6.47557 0.750025
6.47791 0.747588
6.48026 0.745933
6.4826 0.745522
6.48495 0.742485
6.4873 0.731287
6.48964 0.72689
6.49199 0.736722
6.49433 0.739204
6.49668 0.741379
6.49902 0.748461
6.50137 0.755891
6.50371 0.748593
6.50606 0.759623
6.5084 0.758581
6.51075 0.756775
6.51309 0.763274
6.51544 0.772517
6.51779 0.758631
6.52013 0.767127
6.52248 0.764972
6.52482 0.765062
6.52717 0.773729
6.52951 0.782366
6.53186 0.805861
6.5342 0.798146
6.53655 0.794648
6.53889 0.802115
6.54124 0.816075
6.54358 0.826011
6.54593 0.822643
6.54828 0.812196
6.55062 0.80966
6.55297 0.82621
6.55531 0.85033
6.55766 0.853331
6.56 0.846727
6.56235 0.859656
6.56469 0.873125
6.56704 0.867428
6.56938 0.852006
6.57173 0.859902
6.57407 0.88139
6.57642 0.898704
6.57876 0.900314
6.58111 0.908872
6.58346 0.927951
6.5858 0.938971
6.58815 0.94207
6.59049 0.944306
6.59284 0.944961
6.59518 0.939485
6.59753 0.934875
6.59987 0.944949
6.60222 0.959937
6.60456 0.945037
6.60691 0.937859
6.60925 0.943733
6.6116 0.949393
6.61395 0.936474
6.61629 0.922341
6.61864 0.920949
6.62098 0.922139
6.62333 0.918153
6.62567 0.908384
6.62802 0.898923
6.63036 0.899306
6.63271 0.907481
6.63505 0.91369
6.6374 0.914742
6.63974 0.910337
6.64209 0.904933
6.64444 0.915201
6.64678 0.898965
6.64913 0.890198
6.65147 0.884807
6.65382 0.885462
6.65616 0.896153
6.65851 0.90135
6.66085 0.884901
6.6632 0.881644
6.66554 0.883881
6.66789 0.888065
6.67023 0.894525
6.67258 0.901322
6.67493 0.899819
6.67727 0.899019
6.67962 0.909728
6.68196 0.917015
6.68431 0.905124
6.68665 0.895497
6.689 0.905047
6.69134 0.911542
6.69369 0.919676
6.69603 0.930288
6.69838 0.941654
6.70072 0.951832
6.70307 0.956258
6.70541 0.951565
6.70776 0.951781
6.71011 0.951162
6.71245 0.951823
6.7148 0.987154
6.71714 1.00784
6.71949 1.03273
6.72183 1.05072
6.72418 1.05909
6.72652 1.0687
6.72887 1.10305
6.73121 1.09583
6.73356 1.0908
6.7359 1.09401
6.73825 1.10523
6.7406 1.12409
6.74294 1.15118
6.74529 1.15821
6.74763 1.17072
6.74998 1.18309
6.75232 1.18718
6.75467 1.18831
6.75701 1.20613
6.75936 1.23263
6.7617 1.24238
6.76405 1.234
6.76639 1.23059
6.76874 1.24543
6.77109 1.27346
6.77343 1.30522
6.77578 1.31909
6.77812 1.31264
6.78047 1.31717
6.78281 1.33781
6.78516 1.35252
6.7875 1.35282
6.78985 1.35398
6.79219 1.36388
6.79454 1.3632
6.79688 1.35674
6.79923 1.3647
6.80158 1.3858
6.80392 1.36869
6.80627 1.36174
6.80861 1.35257
6.81096 1.34011
6.8133 1.33292
6.81565 1.33806
6.81799 1.33443
6.82034 1.32007
6.82268 1.30425
6.82503 1.29412
6.82737 1.28907
6.82972 1.27547
6.83206 1.24829
6.83441 1.25831
6.83676 1.2475
6.8391 1.22894
6.84145 1.23192
6.84379 1.25634
6.84614 1.25271
6.84848 1.24819
6.85083 1.25352
6.85317 1.26564
6.85552 1.27025
6.85786 1.25051
6.86021 1.25985
6.86255 1.25227
6.8649 1.24875
6.86725 1.25985
6.86959 1.27955
6.87194 1.28839
6.87428 1.28264
6.87663 1.30321
6.87897 1.30214
6.88132 1.2889
6.88366 1.28427
6.88601 1.30082
6.88835 1.30953
6.8907 1.33246
6.89304 1.34355
6.89539 1.33339
6.89774 1.31995
6.90008 1.32801
6.90243 1.34592
6.90477 1.32586
6.90712 1.32671
6.90946 1.32158
6.91181 1.3179
6.91415 1.32617
6.9165 1.31449
6.91884 1.30888
6.92119 1.31465
6.92353 1.31295
6.92588 1.30336
6.92823 1.29783
6.93057 1.31221
6.93292 1.31225
6.93526 1.31946
6.93761 1.31712
6.93995 1.31256
6.9423 1.31188
6.94464 1.30978
6.94699 1.29991
6.94933 1.29325
6.95168 1.28046
6.95402 1.28253
6.95637 1.29982
6.95871 1.30807
6.96106 1.29371
6.96341 1.29641
6.96575 1.30015
6.9681 1.30236
6.97044 1.29697
6.97279 1.2789
6.97513 1.25739
6.97748 1.26264
6.97982 1.26434
6.98217 1.25918
6.98451 1.25217
6.98686 1.2514
6.9892 1.26233
6.99155 1.2798
6.9939 1.27518
6.99624 1.26436
6.99859 1.24975
7.00093 1.23343
7.00328 1.22543
7.00562 1.22902
7.00797 1.2374
7.01031 1.22812
7.01266 1.2255
7.015 1.23595
7.01735 1.23345
7.01969 1.22064
7.02204 1.23155
7.02439 1.23232
7.02673 1.22787
7.02908 1.22138
7.03142 1.212
7.03377 1.21062
7.03611 1.22151
7.03846 1.21643
7.0408 1.21505
7.04315 1.22121
7.04549 1.22594
7.04784 1.22034
7.05018 1.19096
7.05253 1.16863
7.05488 1.16745
7.05722 1.1714
7.05957 1.16519
7.06191 1.15713
7.06426 1.14038
7.0666 1.13467
7.06895 1.10433
7.07129 1.07908
7.07364 1.07268
7.07598 1.06183
7.07833 1.05718
7.08067 1.05516
7.08302 1.04598
7.08536 1.04299
7.08771 1.04687
7.09006 1.04233
7.0924 1.00619
7.09475 0.999584
7.09709 1.0045
7.09944 1.01364
7.10178 1.00457
7.10413 0.966667
7.10647 0.935892
7.10882 0.946744
7.11116 0.948255
7.11351 0.949591
7.11585 0.945753
7.1182 0.936291
7.12055 0.935194
7.12289 0.947687
7.12524 0.962675
7.12758 0.962893
7.12993 0.957952
7.13227 0.95452
7.13462 0.950614
7.13696 0.951052
7.13931 0.943226
7.14165 0.931859
7.144 0.924297
7.14634 0.925166
7.14869 0.935021
7.15104 0.95003
7.15338 0.943148
7.15573 0.947661
7.15807 0.944702
7.16042 0.93816
7.16276 0.941164
7.16511 0.960128
7.16745 0.959535
7.1698 0.960615
7.17214 0.966056
7.17449 0.976315
7.17683 0.9824
7.17918 0.971473
7.18153 0.96741
7.18387 0.979312
7.18622 0.987809
7.18856 0.993494
7.19091 1.0028
7.19325 1.01868
7.1956 1.0258
7.19794 1.0267
7.20029 1.02074
7.20263 1.03624
7.20498 1.05488
7.20732 1.06067
7.20967 1.08351
7.21201 1.081
7.21436 1.07997
7.21671 1.09842
7.21905 1.12285
7.2214 1.13429
7.22374 1.12337
7.22609 1.10619
7.22843 1.11033
7.23078 1.11132
7.23312 1.11059
7.23547 1.12153
7.23781 1.14824
7.24016 1.14716
7.2425 1.15531
7.24485 1.17322
7.2472 1.1724
7.24954 1.16363
7.25189 1.16908
7.25423 1.19342
7.25658 1.20588
7.25892 1.21948
7.26127 1.22962
7.26361 1.22785
7.26596 1.21617
7.2683 1.2058
7.27065 1.18939
7.27299 1.19268
7.27534 1.19494
7.27769 1.21084
7.28003 1.23248
7.28238 1.2431
7.28472 1.25127
7.28707 1.27707
7.28941 1.26718
7.29176 1.25437
7.2941 1.23614
7.29645 1.22088
7.29879 1.24807
7.30114 1.27047
7.30348 1.25534
7.30583 1.23429
7.30818 1.22017
7.31052 1.21674
7.31287 1.21782
7.31521 1.19901
7.31756 1.18212
7.3199 1.19154
7.32225 1.18604
7.32459 1.1641
7.32694 1.14746
7.32928 1.14981
7.33163 1.13656
7.33397 1.13563
7.33632 1.10599
7.33866 1.07228
7.34101 1.05428
7.34336 1.0429
7.3457 1.04815
7.34805 1.0389
7.35039 1.02902
7.35274 1.02392
7.35508 1.0152
7.35743 0.998133
7.35977 1.00289
7.36212 0.998666
7.36446 0.971008
7.36681 0.967246
7.36915 0.973084
7.3715 0.966199
7.37385 0.953265
7.37619 0.945226
7.37854 0.927475
7.38088 0.9113
7.38323 0.908309
7.38557 0.918635
7.38792 0.92856
7.39026 0.911833
7.39261 0.905214
7.39495 0.917217
7.3973 0.927395
7.39964 0.921884
7.40199 0.905396
7.40434 0.904935
7.40668 0.91441
7.40903 0.917681
7.41137 0.92267
7.41372 0.932519
7.41606 0.93794
7.41841 0.927153
7.42075 0.927211
7.4231 0.92998
7.42544 0.936523
7.42779 0.94124
7.43013 0.93619
7.43248 0.923028
7.43483 0.922839
7.43717 0.918758
7.43952 0.921038
7.44186 0.930631
7.44421 0.935348
7.44655 0.927956
7.4489 0.91382
7.45124 0.910469
7.45359 0.89773
7.45593 0.894668
7.45828 0.895007
7.46062 0.901147
7.46297 0.918687
7.46532 0.943633
7.46766 0.942687
7.47001 0.940152
7.47235 0.941853
7.4747 0.951582
7.47704 0.964287
7.47939 0.966772
7.48173 0.952252
7.48408 0.966607
7.48642 0.970216
7.48877 0.97156
7.49111 0.974407
7.49346 0.97969
7.4958 0.996871
7.49815 1.01585
7.5005 1.02858
7.50284 1.03566
7.50519 1.05484
7.50753 1.08658
7.50988 1.10673
7.51222 1.10869
7.51457 1.11989
7.51691 1.12053
7.51926 1.13879
7.5216 1.16762
7.52395 1.19009
7.52629 1.22834
7.52864 1.27144
7.53099 1.27112
7.53333 1.26401
7.53568 1.27805
7.53802 1.30905
7.54037 1.32668
7.54271 1.34444
7.54506 1.35235
7.5474 1.37167
7.54975 1.40073
7.55209 1.42921
7.55444 1.44969
7.55678 1.46818
7.55913 1.45039
7.56148 1.44468
7.56382 1.43545
7.56617 1.44068
7.56851 1.4479
7.57086 1.42489
7.5732 1.45501
7.57555 1.45572
7.57789 1.44441
7.58024 1.43576
7.58258 1.42872
7.58493 1.41743
7.58727 1.40447
7.58962 1.38648
7.59197 1.37683
7.59431 1.36151
7.59666 1.3527
7.599 1.3432
7.60135 1.31735
7.60369 1.32397
7.60604 1.31474
7.60838 1.29735
7.61073 1.27625
7.61307 1.25621
7.61542 1.23913
7.61776 1.22267
7.62011 1.21113
7.62245 1.23615
7.6248 1.2344
7.62715 1.21241
7.62949 1.18307
7.63184 1.15647
7.63418 1.15214
7.63653 1.13164
7.63887 1.13463
7.64122 1.12404
7.64356 1.11644
7.64591 1.12589
7.64825 1.1322
7.6506 1.11302
7.65294 1.11876
7.65529 1.10938
7.65764 1.10114
7.65998 1.10438
7.66233 1.11242
7.66467 1.10285
7.66702 1.0959
7.66936 1.09595
7.67171 1.10544
7.67405 1.10024
7.6764 1.07578
7.67874 1.05924
7.68109 1.08765
7.68343 1.07886
7.68578 1.06487
7.68813 1.06709
7.69047 1.07845
7.69282 1.0799
7.69516 1.06261
7.69751 1.06814
7.69985 1.0671
7.7022 1.04127
7.70454 1.03232
7.70689 1.04882
7.70923 1.0625
7.71158 1.04958
7.71392 1.0522
7.71627 1.05746
7.71862 1.04995
7.72096 1.02667
7.72331 1.00461
7.72565 1.00865
7.728 1.00491
7.73034 1.01339
7.73269 1.01772
7.73503 1.00595
7.73738 0.993607
7.73972 0.999273
7.74207 1.01466
7.74441 1.01488
7.74676 1.03133
7.7491 1.03836
7.75145 1.036
7.7538 1.03951
7.75614 1.05736
7.75849 1.051
7.76083 1.06392
7.76318 1.06989
7.76552 1.0669
7.76787 1.07129
7.77021 1.08457
7.77256 1.08531
7.7749 1.08779
7.77725 1.07628
7.77959 1.07947
7.78194 1.10497
7.78429 1.13086
7.78663 1.13854
7.78898 1.14792
7.79132 1.16978
7.79367 1.17363
7.79601 1.17285
7.79836 1.16508
7.8007 1.15412
7.80305 1.15437
7.80539 1.18623
7.80774 1.2047
7.81008 1.21475
7.81243 1.2085
7.81478 1.1931
7.81712 1.18378
7.81947 1.19312
7.82181 1.20819
7.82416 1.20363
7.8265 1.19349
7.82885 1.19451
7.83119 1.19822
7.83354 1.19378
7.83588 1.18953
7.83823 1.16759
7.84057 1.1668
7.84292 1.14954
7.84527 1.13915
7.84761 1.1381
7.84996 1.13278
7.8523 1.133
7.85465 1.12876
7.85699 1.0944
7.85934 1.08821
7.86168 1.09153
7.86403 1.08508
7.86637 1.07583
7.86872 1.07438
7.87106 1.05076
7.87341 1.02523
7.87575 1.02415
7.8781 1.02618
7.88045 1.01213
7.88279 0.995765
7.88514 0.979251
7.88748 0.998602
7.88983 0.991304
7.89217 0.971985
7.89452 0.960928
7.89686 0.962955
7.89921 0.959993
7.90155 0.964912
7.9039 0.974639
7.90624 0.977013
7.90859 0.976435
7.91094 0.964039
7.91328 0.935904
7.91563 0.934157
7.91797 0.952062
7.92032 0.938731
7.92266 0.931134
7.92501 0.931907
7.92735 0.943198
7.9297 0.967078
7.93204 0.965522
7.93439 0.949005
7.93673 0.943211
7.93908 0.95039
7.94143 0.964949
7.94377 0.968869
7.94612 0.9455
7.94846 0.954253
7.95081 0.935741
7.95315 0.93818
7.9555 0.937667
7.95784 0.932199
7.96019 0.926772
7.96253 0.914517
7.96488 0.91876
7.96722 0.916011
7.96957 0.926711
7.97192 0.922997
7.97426 0.912638
7.97661 0.91594
7.97895 0.91609
7.9813 0.899197
7.98364 0.908603
7.98599 0.918804
7.98833 0.929958
7.99068 0.938428
7.99302 0.935755
7.99537 0.922467
7.99771 0.920404
8.00006 0.905333
8.0024 0.894147
8.00475 0.900293
8.0071 0.915956
8.00944 0.920345
8.01179 0.918715
8.01413 0.911262
8.01648 0.925931
8.01882 0.944596
8.02117 0.953896
8.02351 0.949525
8.02586 0.93711
8.0282 0.931311
8.03055 0.951108
8.03289 0.933816
8.03524 0.925591
8.03759 0.93162
8.03993 0.939541
8.04228 0.946743
8.04462 0.958127
8.04697 0.974812
8.04931 0.989296
8.05166 0.989726
8.054 0.99034
8.05635 1.00414
8.05869 1.01898
8.06104 1.04172
8.06338 1.04962
8.06573 1.06611
8.06808 1.08562
8.07042 1.09345
8.07277 1.08914
8.07511 1.10168
8.07746 1.11537
8.0798 1.10723
8.08215 1.11224
8.08449 1.1349
8.08684 1.15495
8.08918 1.14829
8.09153 1.1166
8.09387 1.11869
8.09622 1.11682
8.09857 1.1305
8.10091 1.14404
8.10326 1.14122
8.1056 1.12319
8.10795 1.11627
8.11029 1.1016
8.11264 1.07898
8.11498 1.06686
8.11733 1.0651
8.11967 1.07802
8.12202 1.10633
8.12436 1.11691
8.12671 1.08182
8.12905 1.07997
8.1314 1.0843
8.13375 1.0923
8.13609 1.08847
8.13844 1.06248
8.14078 1.08268
8.14313 1.08638
8.14547 1.09867
8.14782 1.10192
8.15016 1.09728
8.15251 1.08934
8.15485 1.07727
8.1572 1.05341
8.15954 1.0635
8.16189 1.05538
8.16424 1.03875
8.16658 1.03192
8.16893 1.03962
8.17127 1.04762
8.17362 1.03853
8.17596 1.03064
8.17831 1.03334
8.18065 1.03463
8.183 1.02142
8.18534 0.993639
8.18769 0.971364
8.19003 0.996007
8.19238 0.986563
8.19473 0.972115
8.19707 0.958961
8.19942 0.946064
8.20176 0.939473
8.20411 0.947874
8.20645 0.942081
8.2088 0.940677
8.21114 0.936777
8.21349 0.941773
8.21583 0.950152
8.21818 0.952623
8.22052 0.945742
8.22287 0.930953
8.22522 0.904583
8.22756 0.90022
8.22991 0.90624
8.23225 0.913786
8.2346 0.918062
8.23694 0.91607
8.23929 0.90135
8.24163 0.894263
8.24398 0.907835
8.24632 0.926785
8.24867 0.933892
8.25101 0.921421
8.25336 0.896253
8.2557 0.87749
8.25805 0.873346
8.2604 0.859408
8.26274 0.851703
8.26509 0.863456
8.26743 0.88276
8.26978 0.880974
8.27212 0.869606
8.27447 0.864914
8.27681 0.869698
8.27916 0.866678
8.2815 0.854701
8.28385 0.844178
8.28619 0.845586
8.28854 0.849998
8.29089 0.867173
8.29323 0.874364
8.29558 0.874674
8.29792 0.864857
8.30027 0.851055
8.30261 0.845662
8.30496 0.839313
8.3073 0.826406
8.30965 0.837828
8.31199 0.846123
8.31434 0.848555
8.31668 0.847727
8.31903 0.846665
8.32138 0.859874
8.32372 0.882777
8.32607 0.863309
8.32841 0.841945
8.33076 0.822893
8.3331 0.815375
8.33545 0.830381
8.33779 0.84356
8.34014 0.872396
8.34248 0.872548
8.34483 0.855653
8.34717 0.849878
8.34952 0.853663
8.35187 0.846758
8.35421 0.835956
8.35656 0.845009
8.3589 0.847539
8.36125 0.835357
8.36359 0.827921
8.36594 0.824402
8.36828 0.819343
8.37063 0.836598
8.37297 0.829789
8.37532 0.816996
8.37766 0.832483
8.38001 0.845617
8.38235 0.850884
8.3847 0.86362
8.38705 0.883069
8.38939 0.838724
8.39174 0.84466
8.39408 0.860915
8.39643 0.865414
8.39877 0.871266
8.40112 0.883948
8.40346 0.872765
8.40581 0.864262
8.40815 0.910216
8.4105 0.932526
8.41284 0.927961
8.41519 0.916431
8.41754 0.907123
8.41988 0.893465
8.42223 0.92497
8.42457 0.925478
8.42692 0.914951
8.42926 0.91077
8.43161 0.912034
8.43395 0.917671
8.4363 0.933829
8.43864 0.958824
8.44099 0.934839
8.44333 0.925331
8.44568 0.928277
8.44803 0.944879
8.45037 0.960736
8.45272 0.957059
8.45506 0.950744
8.45741 0.91548
8.45975 0.92271
8.4621 0.947035
8.46444 0.956589
8.46679 0.950652
8.46913 0.94785
8.47148 0.946582
8.47382 0.930207
8.47617 0.92873
8.47852 0.942753
8.48086 0.950842
8.48321 0.943781
8.48555 0.932028
8.4879 0.935528
8.49024 0.933117
8.49259 0.905944
8.49493 0.902283
8.49728 0.905888
8.49962 0.91126
8.50197 0.917576
8.50431 0.91861
8.50666 0.921448
8.509 0.903952
8.51135 0.900817
8.5137 0.904312
8.51604 0.911552
8.51839 0.911803
8.52073 0.895237
8.52308 0.898413
8.52542 0.8902
8.52777 0.898912
8.53011 0.8954
8.53246 0.878989
8.5348 0.868157
8.53715 0.880946
8.53949 0.910491
8.54184 0.91592
8.54419 0.921658
8.54653 0.903415
8.54888 0.888895
8.55122 0.888767
8.55357 0.889648
8.55591 0.875794
8.55826 0.871918
8.5606 0.8782
8.56295 0.887207
8.56529 0.892434
8.56764 0.901521
8.56998 0.904538
8.57233 0.87083
8.57468 0.836627
8.57702 0.844753
8.57937 0.858141
8.58171 0.858035
8.58406 0.854893
8.5864 0.860281
8.58875 0.866814
8.59109 0.844805
8.59344 0.845569
8.59578 0.84872
8.59813 0.854222
8.60047 0.855963
8.60282 0.852571
8.60517 0.850115
8.60751 0.857107
8.60986 0.855608
8.6122 0.858869
8.61455 0.861833
8.61689 0.86143
8.61924 0.859182
8.62158 0.861199
8.62393 0.87158
8.62627 0.868501
8.62862 0.85867
8.63096 0.861953
8.63331 0.865021
8.63565 0.867099
8.638 0.865573
8.64035 0.855517
8.64269 0.849613
8.64504 0.866622
8.64738 0.869093
8.64973 0.882683
8.65207 0.89723
8.65442 0.905021
8.65676 0.900247
8.65911 0.870269
8.66145 0.869817
8.6638 0.872616
8.66614 0.873554
8.66849 0.881207
8.67084 0.899209
8.67318 0.917671
8.67553 0.919792
8.67787 0.916517
8.68022 0.920547
8.68256 0.914366
8.68491 0.905789
8.68725 0.906849
8.6896 0.922467
8.69194 0.939771
8.69429 0.926026
8.69663 0.935614
8.69898 0.948065
8.70133 0.953994
8.70367 0.960114
8.70602 0.97033
8.70836 0.979974
8.71071 0.979047
8.71305 0.970563
8.7154 0.955582
8.71774 0.954365
8.72009 0.971424
8.72243 0.981294
8.72478 0.966374
8.72712 0.941631
8.72947 0.950593
8.73182 0.949088
8.73416 0.954429
8.73651 0.960754
8.73885 0.965836
8.7412 0.972389
8.74354 0.985381
8.74589 1.00474
8.74823 1.00126
8.75058 0.99203
8.75292 0.993377
8.75527 0.980803
8.75761 0.9803
8.75996 1.00092
8.76231 1.00623
8.76465 0.981966
8.767 0.958041
8.76934 0.961841
8.77169 0.966481
8.77403 0.963709
8.77638 0.960336
8.77872 0.962372
8.78107 0.958722
8.78341 0.934486
8.78576 0.934469
8.7881 0.943055
8.79045 0.936856
8.79279 0.916768
8.79514 0.910689
8.79749 0.934589
8.79983 0.903672
8.80218 0.889226
8.80452 0.874452
8.80687 0.876013
8.80921 0.898358
8.81156 0.911005
8.8139 0.893175
8.81625 0.88453
8.81859 0.879433
8.82094 0.870202
8.82328 0.874015
8.82563 0.870128
8.82798 0.858742
8.83032 0.857368
8.83267 0.87303
8.83501 0.859686
8.83736 0.842107
8.8397 0.845588
8.84205 0.858307
8.84439 0.868072
8.84674 0.865598
8.84908 0.854578
8.85143 0.851373
8.85377 0.829975
8.85612 0.845947
8.85847 0.862633
8.86081 0.850224
8.86316 0.837476
8.8655 0.84309
8.86785 0.850758
8.87019 0.850513
8.87254 0.819272
8.87488 0.806984
8.87723 0.806971
8.87957 0.825099
8.88192 0.840441
8.88426 0.84323
8.88661 0.856395
8.88896 0.838195
8.8913 0.844115
8.89365 0.846588
8.89599 0.847265
8.89834 0.854337
8.90068 0.862957
8.90303 0.85354
8.90537 0.813141
8.90772 0.836433
8.91006 0.850948
8.91241 0.849628
8.91475 0.856472
8.9171 0.862513
8.91944 0.855024
8.92179 0.844066
8.92414 0.850313
8.92648 0.871085
8.92883 0.903467
8.93117 0.913832
8.93352 0.91398
8.93586 0.912171
8.93821 0.908456
8.94055 0.904026
8.9429 0.879294
8.94524 0.868771
8.94759 0.895858
8.94993 0.911064
8.95228 0.906061
8.95463 0.909502
8.95697 0.936653
8.95932 0.932816
8.96166 0.924085
8.96401 0.905595
8.96635 0.923172
8.9687 0.944952
8.97104 0.949803
8.97339 0.943388
8.97573 0.942382
8.97808 0.935808
8.98042 0.954601
8.98277 0.97673
8.98512 0.977587
8.98746 0.96829
8.98981 0.966038
8.99215 0.967609
8.9945 0.949669
8.99684 0.944545
8.99919 0.977246
9.00153 0.985113
9.00388 0.963932
9.00622 0.946004
9.00857 0.955521
9.01091 0.979146
9.01326 0.970648
9.01561 0.963756
9.01795 0.967139
9.0203 0.979525
9.02264 0.979884
9.02499 0.983
9.02733 0.991815
9.02968 0.988541
9.03202 0.98915
9.03437 1.03147
9.03671 1.01868
9.03906 0.998324
9.0414 1.00645
9.04375 1.03648
9.04609 1.06004
9.04844 1.05876
9.05079 1.04074
9.05313 1.04088
9.05548 1.04558
9.05782 1.05132
9.06017 1.04689
9.06251 1.03746
9.06486 1.0345
9.0672 1.03824
9.06955 1.04666
9.07189 1.05683
9.07424 1.04845
9.07658 1.0336
9.07893 1.03965
9.08128 1.05397
9.08362 1.05165
9.08597 1.05222
9.08831 1.04722
9.09066 1.04596
9.093 1.04285
9.09535 1.0343
9.09769 1.00559
9.10004 0.977002
9.10238 0.976941
9.10473 0.970985
9.10707 0.982836
9.10942 1.01583
9.11177 1.01522
9.11411 1.00878
9.11646 1.00143
9.1188 0.996712
9.12115 1.00154
9.12349 0.99446
9.12584 0.991375
9.12818 0.978726
9.13053 0.973484
9.13287 0.969394
9.13522 0.961675
9.13756 0.959504
9.13991 0.970688
9.14226 0.959046
9.1446 0.979046
9.14695 0.95643
9.14929 0.937654
9.15164 0.916497
9.15398 0.913853
9.15633 0.940269
9.15867 0.965119
9.16102 0.964762
9.16336 0.94628
9.16571 0.909512
9.16805 0.884581
9.1704 0.897799
9.17274 0.917454
9.17509 0.916218
9.17744 0.914894
9.17978 0.891303
9.18213 0.904348
9.18447 0.908523
9.18682 0.906443
9.18916 0.892023
9.19151 0.889769
9.19385 0.89983
9.1962 0.878134
9.19854 0.895103
9.20089 0.88939
9.20323 0.867399
9.20558 0.852476
9.20793 0.856735
9.21027 0.87511
9.21262 0.889401
9.21496 0.883862
9.21731 0.876541
9.21965 0.877713
9.222 0.863396
9.22434 0.874275
9.22669 0.869234
9.22903 0.851212
9.23138 0.851839
9.23372 0.866265
9.23607 0.86692
9.23842 0.836897
9.24076 0.843463
9.24311 0.877262
9.24545 0.876599
9.2478 0.872661
9.25014 0.897863
9.25249 0.885756
9.25483 0.877948
9.25718 0.874626
9.25952 0.855422
9.26187 0.857775
9.26421 0.864396
9.26656 0.870121
9.26891 0.876267
9.27125 0.872382
9.2736 0.885923
9.27594 0.890603
9.27829 0.875044
9.28063 0.855345
9.28298 0.866011
9.28532 0.887037
9.28767 0.891693
9.29001 0.898592
9.29236 0.902818
9.2947 0.907464
9.29705 0.886782
9.29939 0.891848
9.30174 0.896307
9.30409 0.90307
9.30643 0.916451
9.30878 0.911838
9.31112 0.913901
9.31347 0.925077
9.31581 0.930958
9.31816 0.932379
9.3205 0.923886
9.32285 0.909156
9.32519 0.89874
9.32754 0.900312
9.32988 0.909783
9.33223 0.931747
9.33458 0.976018
9.33692 1.00047
9.33927 0.98625
9.34161 0.960384
9.34396 0.947634
9.3463 0.948212
9.34865 0.976103
9.35099 1.00582
9.35334 1.0212
9.35568 1.0273
9.35803 1.0192
9.36037 1.01393
9.36272 1.01943
9.36507 1.03065
9.36741 1.06008
9.36976 1.06872
9.3721 1.08902
9.37445 1.09313
9.37679 1.11173
9.37914 1.13905
9.38148 1.14781
9.38383 1.13745
9.38617 1.15919
9.38852 1.17882
9.39086 1.15545
9.39321 1.14703
9.39556 1.14264
9.3979 1.13532
9.40025 1.14223
9.40259 1.16395
9.40494 1.15613
9.40728 1.15416
9.40963 1.15768
9.41197 1.17073
9.41432 1.15003
9.41666 1.1395
9.41901 1.14816
9.42135 1.14719
9.4237 1.12395
9.42604 1.11017
9.42839 1.13126
9.43074 1.13326
9.43308 1.14229
9.43543 1.13218
9.43777 1.11825
9.44012 1.12555
9.44246 1.14474
9.44481 1.14187
9.44715 1.15136
9.4495 1.15968
9.45184 1.15948
9.45419 1.16043
9.45653 1.15364
9.45888 1.14417
9.46123 1.14373
9.46357 1.1305
9.46592 1.10712
9.46826 1.13248
9.47061 1.13191
9.47295 1.13567
9.4753 1.14515
9.47764 1.15339
9.47999 1.16312
9.48233 1.17975
9.48468 1.16768
9.48702 1.14753
9.48937 1.13446
9.49172 1.12984
9.49406 1.14047
9.49641 1.15493
9.49875 1.15924
9.5011 1.15518
9.50344 1.15186
9.50579 1.12298
9.50813 1.09347
9.51048 1.07623
9.51282 1.07929
9.51517 1.08804
9.51751 1.09456
9.51986 1.1005
9.52221 1.09533
9.52455 1.10563
9.5269 1.11869
9.52924 1.13099
9.53159 1.1537
9.53393 1.15715
9.53628 1.13437
9.53862 1.11868
9.54097 1.14203
9.54331 1.14858
9.54566 1.12164
9.548 1.12339
9.55035 1.11438
9.55269 1.10153
9.55504 1.09162
9.55739 1.09705
9.55973 1.12218
9.56208 1.12213
9.56442 1.13209
9.56677 1.15122
9.56911 1.17068
9.57146 1.17351
9.5738 1.1681
9.57615 1.16219
9.57849 1.15206
9.58084 1.13087
9.58318 1.09514
9.58553 1.13987
9.58788 1.14188
9.59022 1.1537
9.59257 1.16451
9.59491 1.16853
9.59726 1.15135
9.5996 1.10458
9.60195 1.10675
9.60429 1.12853
9.60664 1.09357
9.60898 1.0961
9.61133 1.1063
9.61367 1.09782
9.61602 1.08138
9.61837 1.0815
9.62071 1.09318
9.62306 1.08402
9.6254 1.0762
9.62775 1.07421
9.63009 1.07944
9.63244 1.07603
9.63478 1.06429
9.63713 1.05309
9.63947 1.05092
9.64182 1.07183
9.64416 1.05647
9.64651 1.02501
9.64886 1.01535
9.6512 1.00686
9.65355 1.00146
9.65589 0.999572
9.65824 0.999259
9.66058 1.00935
9.66293 1.02486
9.66527 1.01901
9.66762 1.00395
9.66996 0.993651
9.67231 0.978631
9.67465 0.968629
9.677 0.970107
9.67934 0.978428
9.68169 0.998325
9.68404 0.961403
9.68638 0.957949
9.68873 0.988654
9.69107 1.00359
9.69342 1.00441
9.69576 1.00533
9.69811 1.00328
9.70045 0.986285
9.7028 0.979477
9.70514 0.967756
9.70749 0.996375
9.70983 0.987218
9.71218 0.972612
9.71453 0.96452
9.71687 0.964687
9.71922 0.96898
9.72156 0.959867
9.72391 0.961538
9.72625 0.976559
9.7286 1.00051
9.73094 0.993624
9.73329 0.988557
9.73563 0.988517
9.73798 0.974937
9.74032 0.955067
9.74267 0.977486
9.74502 1.01298
9.74736 1.00496
9.74971 0.996491
9.75205 1.00376
9.7544 1.01337
9.75674 1.01333
9.75909 1.00857
9.76143 1.01268
9.76378 1.02193
9.76612 1.01779
9.76847 1.02333
9.77081 1.01679
9.77316 1.03015
9.77551 1.03478
9.77785 1.02836
9.7802 1.0446
9.78254 1.08888
9.78489 1.11422
9.78723 1.09903
9.78958 1.08676
9.79192 1.07359
9.79427 1.06833
9.79661 1.07329
9.79896 1.08628
9.8013 1.10068
9.80365 1.10309
9.80599 1.089
9.80834 1.06062
9.81069 1.04287
9.81303 1.03467
9.81538 1.0257
9.81772 1.01734
9.82007 1.0211
9.82241 1.03494
9.82476 1.02499
9.8271 1.00104
9.82945 0.997807
9.83179 0.978038
9.83414 0.971296
9.83648 0.968588
9.83883 0.974172
9.84118 0.987276
9.84352 0.990253
9.84587 0.985688
9.84821 0.954922
9.85056 0.941862
9.8529 0.959266
9.85525 0.981834
9.85759 0.982307
9.85994 0.975275
9.86228 0.979385
9.86463 0.981092
9.86697 0.971362
9.86932 0.972845
9.87167 0.932821
9.87401 0.952176
9.87636 0.959465
9.8787 0.942141
9.88105 0.937243
9.88339 0.957718
9.88574 0.966083
9.88808 0.958836
9.89043 0.986871
9.89277 0.983899
9.89512 0.967922
9.89746 0.972697
9.89981 0.976114
9.90216 0.965058
9.9045 0.947089
9.90685 0.929928
9.90919 0.92533
9.91154 0.92486
9.91388 0.93723
9.91623 0.965619
9.91857 0.978121
9.92092 0.954958
9.92326 0.921527
9.92561 0.908787
9.92795 0.911073
9.9303 0.918981
9.93264 0.92021
9.93499 0.939576
9.93734 0.940498
9.93968 0.947749
9.94203 0.949086
9.94437 0.946604
9.94672 0.953272
9.94906 0.963462
9.95141 0.963772
9.95375 0.953023
9.9561 0.95442
9.95844 0.948889
9.96079 0.951849
9.96313 0.949093
9.96548 0.9303
9.96783 0.91331
9.97017 0.924024
9.97252 0.940436
9.97486 0.929623
9.97721 0.936982
9.97955 0.945378
9.9819 0.935662
9.98424 0.938078
9.98659 0.930037
9.98893 0.907615
9.99128 0.925171
9.99362 0.9672
9.99597 0.94793
9.99832 0.942459
10.0007 0.906138
10.003 0.883828
10.0054 0.90257
10.0077 0.918147
10.01 0.912544
10.0124 0.920867
10.0147 0.923079
10.0171 0.891026
10.0194 0.924896
10.0218 0.925956
10.0241 0.915598
10.0265 0.900381
10.0288 0.918142
10.0312 0.936262
10.0335 0.899463
10.0358 0.882846
10.0382 0.90916
10.0405 0.913657
10.0429 0.919929
10.0452 0.924718
10.0476 0.896952
10.0499 0.880998
10.0523 0.880332
10.0546 0.881527
10.0569 0.922848
10.0593 0.905883
10.0616 0.91819
10.064 0.901739
10.0663 0.892609
10.0687 0.885205
10.071 0.885603
10.0734 0.894055
10.0757 0.909644
10.0781 0.935131
10.0804 0.951515
10.0827 0.944463
10.0851 0.929241
10.0874 0.92553
10.0898 0.918164
10.0921 0.924109
10.0945 0.934887
10.0968 0.930809
10.0992 0.906949
10.1015 0.871975
10.1039 0.886667
10.1062 0.887551
10.1085 0.929618
10.1109 0.938801
10.1132 0.925048
10.1156 0.922762
10.1179 0.927536
10.1203 0.915384
10.1226 0.900686
10.125 0.905375
10.1273 0.927547
10.1297 0.942737
10.132 0.927637
10.1343 0.94103
10.1367 0.960727
10.139 0.960061
10.1414 0.945283
10.1437 0.931146
10.1461 0.918471
10.1484 0.969187
10.1508 0.971253
10.1531 0.95134
10.1555 0.963785
10.1578 0.978939
10.1601 0.985921
10.1625 0.990066
10.1648 0.989668
10.1672 0.986965
10.1695 1.00611
10.1719 1.02856
10.1742 1.03663
10.1766 1.05566
10.1789 1.05962
10.1813 1.06245
10.1836 1.0753
10.1859 1.07746
10.1883 1.04726
10.1906 1.02158
10.193 1.02525
10.1953 1.04808
10.1977 1.07696
10.2 1.11682
10.2024 1.14517
10.2047 1.14172
10.2071 1.11743
10.2094 1.1003
10.2117 1.09602
10.2141 1.09842
10.2164 1.10031
10.2188 1.11452
10.2211 1.10644
10.2235 1.09605
10.2258 1.09408
10.2282 1.09138
10.2305 1.08869
10.2329 1.10283
10.2352 1.12467
10.2375 1.16477
10.2399 1.13836
10.2422 1.11042
10.2446 1.11572
10.2469 1.12388
10.2493 1.11144
10.2516 1.10843
10.254 1.13961
10.2563 1.15921
10.2587 1.15179
10.261 1.18843
10.2633 1.19107
10.2657 1.18733
10.268 1.16239
10.2704 1.13651
10.2727 1.12999
10.2751 1.13273
10.2774 1.13992
10.2798 1.18792
10.2821 1.19293
10.2845 1.16212
10.2868 1.15156
10.2891 1.14611
10.2915 1.12179
10.2938 1.10679
10.2962 1.12311
10.2985 1.14127
10.3009 1.12301
10.3032 1.1101
10.3056 1.09502
10.3079 1.08309
10.3102 1.07978
10.3126 1.08277
10.3149 1.09131
10.3173 1.10344
10.3196 1.10197
10.322 1.08015
10.3243 1.06506
10.3267 1.07448
10.329 1.06545
10.3314 1.03037
10.3337 1.03689
10.336 1.05716
10.3384 1.06093
10.3407 1.06143
10.3431 1.07508
10.3454 1.08566
10.3478 1.07157
10.3501 1.07385
10.3525 1.04867
10.3548 1.03823
10.3572 1.01309
10.3595 0.977487
10.3618 0.998474
10.3642 1.04457
10.3665 1.04988
10.3689 1.01821
10.3712 1.00858
10.3736 1.01243
10.3759 1.02784
10.3783 1.02427
10.3806 1.00717
10.383 0.995159
10.3853 1.00903
10.3876 1.03137
10.39 1.03361
10.3923 1.01442
10.3947 0.999203
10.397 1.00125
10.3994 1.00045
10.4017 0.991795
10.4041 0.992157
10.4064 1.00213
10.4088 0.982792
10.4111 0.946886
10.4134 0.927054
10.4158 0.931376
10.4181 0.954328
10.4205 0.979894
10.4228 0.986982
10.4252 0.987197
10.4275 0.990071
10.4299 0.972592
10.4322 0.962428
10.4346 0.969286
10.4369 0.977316
10.4392 0.976513
10.4416 0.973545
10.4439 0.955092
10.4463 0.935055
10.4486 0.931797
10.451 0.963581
10.4533 0.979895
10.4557 0.970941
10.458 0.955555
10.4604 0.957868
10.4627 0.982805
10.465 1.00458
10.4674 0.993209
10.4697 0.992658
10.4721 1.00765
10.4744 1.00494
10.4768 0.989719
10.4791 0.971039
10.4815 0.953095
10.4838 0.949535
10.4862 0.960224
10.4885 0.956789
10.4908 0.948362
10.4932 0.966068
10.4955 0.965954
10.4979 0.978845
10.5002 0.974885
10.5026 0.974621
10.5049 0.988336
10.5073 0.995843
10.5096 0.988354
10.512 0.982812
10.5143 0.965293
10.5166 0.96387
10.519 0.954101
10.5213 0.950299
10.5237 0.999574
10.526 1.00343
10.5284 1.00545
10.5307 1.01782
10.5331 1.011
10.5354 0.991962
10.5378 0.982243
10.5401 0.989264
10.5424 1.02176
10.5448 1.03169
10.5471 1.00329
10.5495 0.990208
10.5518 1.0015
10.5542 1.0157
10.5565 1.01982
10.5589 1.01802
10.5612 1.00837
10.5635 0.977025
10.5659 0.987709
10.5682 1.02561
10.5706 1.0134
10.5729 1.00152
10.5753 1.00435
10.5776 0.995193
10.58 0.977326
10.5823 0.970312
10.5847 0.966078
10.587 0.961731
10.5893 0.977592
10.5917 0.947283
10.594 0.953622
10.5964 0.952456
10.5987 0.954956
10.6011 0.962659
10.6034 0.951678
10.6058 0.928439
10.6081 0.924996
10.6105 0.938748
10.6128 0.979874
10.6151 0.998644
10.6175 0.971034
10.6198 0.97372
10.6222 1.00031
10.6245 1.0063
10.6269 0.987906
10.6292 0.972499
10.6316 0.978781
10.6339 0.99118
10.6363 0.974959
10.6386 0.961336
10.6409 0.938695
10.6433 0.970663
10.6456 0.967562
10.648 0.963811
10.6503 0.995829
10.6527 1.02296
10.655 1.01947
10.6574 1.0136
10.6597 1.01434
10.6621 1.00232
10.6644 0.994252
10.6667 0.985608
10.6691 0.994092
10.6714 0.975665
10.6738 0.968581
10.6761 0.956761
10.6785 0.966585
10.6808 1.0042
10.6832 1.01082
10.6855 0.985119
10.6879 0.97709
10.6902 0.997896
10.6925 0.989634
10.6949 0.993964
10.6972 0.992934
10.6996 0.996941
10.7019 1.01095
10.7043 1.01388
10.7066 1.00592
10.709 1.01149
10.7113 1.00118
10.7137 1.01881
10.716 1.0121
10.7183 1.01482
10.7207 1.03078
10.723 1.03323
10.7254 1.02347
10.7277 1.01744
10.7301 1.01843
10.7324 1.02502
10.7348 1.03842
10.7371 1.03331
10.7395 1.02743
10.7418 1.04587
10.7441 1.05365
10.7465 1.04
10.7488 1.03648
10.7512 1.04427
10.7535 1.05141
10.7559 1.06464
10.7582 1.06846
10.7606 1.02598
10.7629 1.0213
10.7653 1.05229
10.7676 1.03198
10.7699 1.00741
10.7723 1.00741
10.7746 1.00612
10.777 1.00452
10.7793 1.0211
10.7817 1.03009
10.784 1.01273
10.7864 1.01124
10.7887 0.993021
10.7911 0.991614
10.7934 1.02236
10.7957 1.01354
10.7981 1.03599
10.8004 1.02196
10.8028 1.01004
10.8051 1.0115
10.8075 1.0065
10.8098 0.995266
10.8122 0.993224
10.8145 1.00176
10.8168 1.00267
10.8192 1.0077
10.8215 1.04017
10.8239 1.03895
10.8262 1.01065
10.8286 0.984407
10.8309 0.983549
10.8333 1.00346
10.8356 1.01253
10.838 0.999327
10.8403 1.01152
10.8426 0.9982
10.845 0.980218
10.8473 1.00837
10.8497 1.02317
10.852 1.03586
10.8544 1.03818
10.8567 1.02829
10.8591 1.01591
10.8614 1.00471
10.8638 0.997822
10.8661 1.00901
10.8684 0.974963
10.8708 0.963181
10.8731 0.992429
10.8755 0.986067
10.8778 0.960324
10.8802 0.949794
10.8825 0.938907
10.8849 0.939497
10.8872 0.964553
10.8896 0.9796
10.8919 0.965979
10.8942 0.990837
10.8966 0.993218
10.8989 0.93979
10.9013 0.956105
10.9036 0.984333
10.906 0.990558
10.9083 0.97776
10.9107 0.968555
10.913 0.955016
10.9154 0.938486
10.9177 0.960741
10.92 0.98567
10.9224 0.986979
10.9247 0.993327
10.9271 0.978993
10.9294 0.983963
10.9318 1.00186
10.9341 0.986505
10.9365 0.961783
10.9388 0.964717
10.9412 0.983842
10.9435 0.975638
10.9458 0.932743
10.9482 0.938073
10.9505 0.964934
10.9529 0.925232
10.9552 0.965183
10.9576 0.973542
10.9599 0.983746
10.9623 0.993748
10.9646 1.007
10.967 1.00099
10.9693 0.980239
10.9716 1.00151
10.974 1.00258
10.9763 1.01285
10.9787 0.963232
10.981 0.970528
10.9834 0.981784
10.9857 1.00432
10.9881 1.00519
10.9904 1.01398
10.9928 1.03645
10.9951 1.04201
10.9974 1.02851
10.9998 1.02987
11.0021 1.04726
11.0045 1.0654
11.0068 1.07281
11.0092 1.06746
11.0115 1.05736
11.0139 1.05781
11.0162 1.06838
11.0186 1.0522
11.0209 1.04235
11.0232 1.05774
11.0256 1.05658
11.0279 1.07105
11.0303 1.07764
11.0326 1.0851
11.035 1.06355
11.0373 1.04114
11.0397 1.01337
11.042 1.01999
11.0444 1.05876
11.0467 1.06892
11.049 1.05643
11.0514 1.07444
11.0537 1.11768
11.0561 1.14851
11.0584 1.15843
11.0608 1.19481
11.0631 1.16099
11.0655 1.1639
11.0678 1.18174
11.0701 1.18147
11.0725 1.16823
11.0748 1.15687
11.0772 1.15816
11.0795 1.15588
11.0819 1.14228
11.0842 1.17489
11.0866 1.19721
11.0889 1.17928
11.0913 1.1818
11.0936 1.17452
11.0959 1.17134
11.0983 1.16225
11.1006 1.16346
11.103 1.18191
11.1053 1.19826
11.1077 1.18891
11.11 1.15985
11.1124 1.14181
11.1147 1.1281
11.1171 1.14428
11.1194 1.16518
11.1217 1.16689
11.1241 1.14456
11.1264 1.1147
11.1288 1.12137
11.1311 1.12509
11.1335 1.10696
11.1358 1.09318
11.1382 1.09403
11.1405 1.09723
11.1429 1.07614
11.1452 1.07398
11.1475 1.07842
11.1499 1.06126
11.1522 1.04881
11.1546 1.05821
11.1569 1.07236
11.1593 1.07223
11.1616 1.05124
11.164 1.0458
11.1663 1.07082
11.1687 1.05578
11.171 1.00169
11.1733 1.05274
11.1757 1.04018
11.178 1.01807
11.1804 1.03136
11.1827 1.03963
11.1851 1.04012
11.1874 1.0265
11.1898 1.02555
11.1921 1.02386
11.1945 1.02051
11.1968 1.0439
11.1991 1.0205
11.2015 1.00986
11.2038 1.04368
11.2062 1.04815
11.2085 1.07627
11.2109 1.10048
11.2132 1.08771
11.2156 1.07641
11.2179 1.0736
11.2203 1.07896
11.2226 1.08965
11.2249 1.0912
11.2273 1.07916
11.2296 1.06635
11.232 1.08967
11.2343 1.08314
11.2367 1.09828
11.239 1.11419
11.2414 1.08561
11.2437 1.07603
11.2461 1.08218
11.2484 1.07098
11.2507 1.0626
11.2531 1.07997
11.2554 1.09481
11.2578 1.08719
11.2601 1.06293
11.2625 1.08701
11.2648 1.12001
11.2672 1.11504
11.2695 1.1216
11.2719 1.11012
11.2742 1.09771
11.2765 1.0901
11.2789 1.08724
11.2812 1.0994
11.2836 1.1144
11.2859 1.10425
11.2883 1.09153
11.2906 1.08703
11.293 1.08663
11.2953 1.08462
11.2977 1.08199
11.3 1.07316
11.3023 1.07611
11.3047 1.07151
11.307 1.05465
11.3094 1.05937
11.3117 1.09085
11.3141 1.11178
11.3164 1.11043
11.3188 1.12066
11.3211 1.14522
11.3234 1.12678
11.3258 1.13305
11.3281 1.12415
11.3305 1.12181
11.3328 1.10803
11.3352 1.11092
11.3375 1.11354
11.3399 1.11246
11.3422 1.11873
11.3446 1.14038
11.3469 1.16956
11.3492 1.16763
11.3516 1.13546
11.3539 1.13588
11.3563 1.12919
11.3586 1.17307
11.361 1.17497
11.3633 1.15816
11.3657 1.15879
11.368 1.17519
11.3704 1.1661
11.3727 1.15437
11.375 1.15094
11.3774 1.13581
11.3797 1.16674
11.3821 1.19537
11.3844 1.16668
11.3868 1.12878
11.3891 1.13068
11.3915 1.12588
11.3938 1.11087
11.3962 1.09345
11.3985 1.07877
11.4008 1.07789
11.4032 1.07668
11.4055 1.06773
11.4079 1.07396
11.4102 1.09631
11.4126 1.09368
11.4149 1.08803
11.4173 1.06333
11.4196 1.03694
11.422 1.06177
11.4243 1.09158
11.4266 1.10467
11.429 1.10572
11.4313 1.11319
11.4337 1.11242
11.436 1.06761
11.4384 1.00064
11.4407 0.976336
11.4431 0.993227
11.4454 1.01095
11.4478 0.99173
11.4501 1.03986
11.4524 1.05238
11.4548 1.07005
11.4571 1.05948
11.4595 1.05416
11.4618 1.0491
11.4642 1.01772
11.4665 1.00599
11.4689 1.01099
11.4712 1.00051
11.4736 1.0089
11.4759 1.02665
11.4782 1.04649
11.4806 1.03912
11.4829 1.01407
11.4853 1.01843
11.4876 1.02504
11.49 1.02903
11.4923 1.04294
11.4947 1.03617
11.497 1.05211
11.4994 1.06374
11.5017 1.04694
11.504 1.04118
11.5064 1.0463
11.5087 1.02881
11.5111 0.990476
11.5134 0.986782
11.5158 1.01936
11.5181 1.0261
11.5205 1.0178
11.5228 1.0066
11.5252 1.01414
11.5275 1.0347
11.5298 1.04293
11.5322 1.03063
11.5345 1.02567
11.5369 1.04314
11.5392 1.04917
11.5416 1.02031
11.5439 0.991215
11.5463 1.02482
11.5486 1.03548
11.551 1.01869
11.5533 1.03256
11.5556 1.02858
11.558 0.990653
11.5603 1.00175
11.5627 1.029
11.565 1.0363
11.5674 1.04453
11.5697 1.05525
11.5721 1.04868
11.5744 1.04284
11.5767 1.02465
11.5791 1.02045
11.5814 1.02118
11.5838 1.04937
11.5861 1.0337
11.5885 1.02911
11.5908 0.968934
11.5932 0.953533
11.5955 0.973868
11.5979 0.99192
11.6002 0.989559
11.6025 0.986108
11.6049 1.00165
11.6072 1.01241
11.6096 1.01781
11.6119 1.04382
11.6143 0.99969
11.6166 0.981664
11.619 0.966703
11.6213 0.960044
11.6237 1.00148
11.626 1.00415
11.6283 1.03881
11.6307 1.02452
11.633 0.989853
11.6354 0.997332
11.6377 1.02166
11.6401 1.03929
11.6424 1.05025
11.6448 1.02069
11.6471 1.01035
11.6495 1.02892
11.6518 1.07871
11.6541 1.01689
11.6565 1.00737
11.6588 1.05279
11.6612 1.05849
11.6635 1.03645
11.6659 1.01216
11.6682 1.01728
11.6706 1.02736
11.6729 1.00904
11.6753 0.998399
11.6776 1.01927
11.6799 1.03028
11.6823 1.03369
11.6846 1.0123
11.687 1.0154
11.6893 1.01371
11.6917 1.03308
11.694 1.03845
11.6964 1.02117
11.6987 1.01008
11.7011 1.0078
11.7034 1.01502
11.7057 1.01115
11.7081 1.01178
11.7104 1.02142
11.7128 0.986238
11.7151 0.999088
11.7175 1.04599
11.7198 1.0977
11.7222 1.08146
11.7245 1.09159
11.7269 1.06242
11.7292 1.07397
11.7315 1.05853
11.7339 1.05222
11.7362 1.03995
11.7386 1.02521
11.7409 1.007
11.7433 1.01354
11.7456 1.04973
11.748 1.04381
11.7503 1.01001
11.7527 1.01341
11.755 1.03218
11.7573 1.02417
11.7597 1.04468
11.762 1.05083
11.7644 1.07523
11.7667 1.08089
11.7691 1.05332
11.7714 1.04299
11.7738 1.02185
11.7761 1.00617
11.7785 1.01236
11.7808 1.02716
11.7831 1.03862
11.7855 1.03597
11.7878 1.04459
11.7902 1.04152
11.7925 1.057
11.7949 1.07147
11.7972 1.03171
11.7996 0.992891
11.8019 1.04245
11.8043 1.05923
11.8066 1.02793
11.8089 1.0158
11.8113 1.01373
11.8136 1.01713
11.816 1.03164
11.8183 1.02643
11.8207 0.998007
11.823 0.997852
11.8254 1.01214
11.8277 1.00872
11.83 0.984523
11.8324 0.996542
11.8347 1.01992
11.8371 1.00644
11.8394 1.00206
11.8418 1.01983
11.8441 1.00952
11.8465 1.01754
11.8488 1.00368
11.8512 0.968935
11.8535 0.96133
11.8558 0.972664
11.8582 0.971511
11.8605 0.98034
11.8629 1.01059
11.8652 1.01791
11.8676 1.01902
11.8699 0.956847
11.8723 0.935635
11.8746 0.958931
11.877 0.997255
11.8793 1.00622
11.8816 0.988797
11.884 0.995159
11.8863 0.986539
11.8887 0.972107
11.891 0.968177
11.8934 0.965151
11.8957 0.955319
11.8981 0.93691
11.9004 0.917026
11.9028 0.915801
11.9051 0.941104
11.9074 0.951058
11.9098 0.965958
11.9121 0.90617
11.9145 0.905192
11.9168 0.920793
11.9192 0.944289
11.9215 0.930465
11.9239 0.938355
11.9262 0.949346
11.9286 0.950755
11.9309 0.953829
11.9332 0.94445
11.9356 0.920093
11.9379 0.908615
11.9403 0.917297
11.9426 0.940784
11.945 0.907006
11.9473 0.874186
11.9497 0.90411
11.952 0.939236
11.9544 0.907744
11.9567 0.915967
11.959 0.93935
11.9614 0.969964
11.9637 0.93653
11.9661 0.918152
11.9684 0.9232
11.9708 0.90674
11.9731 0.890145
11.9755 0.910081
11.9778 0.939963
11.9802 0.944469
11.9825 0.933
11.9848 0.90866
11.9872 0.903937
11.9895 0.909062
11.9919 0.893752
11.9942 0.92644
11.9966 0.937144
11.9989 0.937271
12.0013 0.90701
12.0036 0.893263
12.006 0.918433
12.0083 0.933328
12.0106 0.963642
12.013 0.990479
12.0153 0.972505
12.0177 0.95699
12.02 0.949806
12.0224 0.886446
12.0247 0.867237
12.0271 0.923663
12.0294 0.946284
12.0318 0.914221
12.0341 0.918624
12.0364 0.910122
12.0388 0.913983
12.0411 0.960966
12.0435 0.969005
12.0458 0.910903
12.0482 0.891249
12.0505 0.906935
12.0529 0.925572
12.0552 0.930028
12.0576 0.932075
12.0599 0.919097
12.0622 0.881439
12.0646 0.893443
12.0669 0.915823
12.0693 0.921519
12.0716 0.938398
12.074 0.933448
12.0763 0.895565
12.0787 0.905608
12.081 0.93334
12.0833 0.94642
12.0857 0.931421
12.088 0.927276
12.0904 0.915741
12.0927 0.924749
12.0951 0.93704
12.0974 0.928295
12.0998 0.937464
12.1021 0.952791
12.1045 0.944728
12.1068 0.961202
12.1091 0.963237
12.1115 0.938085
12.1138 0.925882
12.1162 0.977189
12.1185 0.976281
12.1209 0.959423
12.1232 0.946306
12.1256 0.950304
12.1279 0.957629
12.1303 0.941259
12.1326 0.90326
12.1349 0.925084
12.1373 0.94544
12.1396 0.945962
12.142 0.957687
12.1443 0.953806
12.1467 0.931762
12.149 0.9301
12.1514 0.941563
12.1537 0.962236
12.1561 0.959353
12.1584 0.965817
12.1607 0.934652
12.1631 0.926941
12.1654 0.927541
12.1678 0.953885
12.1701 0.966229
12.1725 0.931562
12.1748 0.944177
12.1772 0.935376
12.1795 0.946814
12.1819 0.962841
12.1842 0.9865
12.1865 0.988527
12.1889 0.975936
12.1912 0.986115
12.1936 1.00139
12.1959 1.00368
12.1983 1.01061
12.2006 1.0008
12.203 0.984589
12.2053 0.984355
12.2077 0.989472
12.21 0.967884
12.2123 0.959012
12.2147 0.929786
12.217 0.908278
12.2194 0.970905
12.2217 0.986653
12.2241 1.03057
12.2264 1.03593
12.2288 1.0164
12.2311 0.987597
12.2335 0.98936
12.2358 1.01917
12.2381 1.03928
12.2405 1.03065
12.2428 1.00424
12.2452 1.00442
12.2475 1.02433
12.2499 1.02246
12.2522 1.02957
12.2546 1.02029
12.2569 1.04746
12.2593 1.03654
12.2616 1.02006
12.2639 1.05551
12.2663 1.03169
12.2686 1.01519
12.271 1.02265
12.2733 0.984913
12.2757 0.972743
12.278 0.998528
12.2804 0.993788
12.2827 1.00203
12.2851 1.00805
12.2874 1.00085
12.2897 1.00527
12.2921 0.987978
12.2944 0.970311
12.2968 0.92879
12.2991 0.943931
12.3015 0.963814
12.3038 0.98736
12.3062 0.980214
12.3085 0.955073
12.3109 0.938368
12.3132 0.979581
12.3155 0.985877
12.3179 1.02431
12.3202 1.03706
12.3226 1.02626
12.3249 1.03583
12.3273 1.02731
12.3296 0.981809
12.332 0.994107
12.3343 1.03097
12.3366 1.0167
12.339 0.983039
12.3413 0.960961
12.3437 0.967033
12.346 1.0034
12.3484 0.996225
12.3507 0.97776
12.3531 0.968847
12.3554 0.986763
12.3578 1.00248
12.3601 1.01004
12.3624 1.02813
12.3648 1.01499
12.3671 0.946908
12.3695 0.94371
12.3718 1.01707
12.3742 1.02811
12.3765 0.991816
12.3789 1.02116
12.3812 1.04737
12.3836 1.03229
12.3859 1.00756
12.3882 1.00791
12.3906 1.02958
12.3929 1.04299
12.3953 1.05681
12.3976 1.0592
12.4 1.01147
12.4023 0.994981
12.4047 0.988501
12.407 1.00055
12.4094 1.01865
12.4117 1.04274
12.414 1.01588
12.4164 1.00841
12.4187 0.983451
12.4211 0.982771
12.4234 0.985403
12.4258 1.01566
12.4281 1.01615
12.4305 0.980105
12.4328 0.966637
12.4352 0.96502
12.4375 0.973433
12.4398 1.0051
12.4422 1.014
12.4445 0.986813
12.4469 0.981267
12.4492 0.995099
12.4516 0.972765
12.4539 0.931275
12.4563 0.922467
12.4586 0.94045
12.461 0.974024
12.4633 0.97429
12.4656 0.947571
12.468 0.982215
12.4703 0.953784
12.4727 0.935477
12.475 0.9597
12.4774 0.965825
12.4797 0.981021
12.4821 0.979853
12.4844 0.955152
12.4868 0.926041
12.4891 0.90286
12.4914 0.905066
12.4938 0.931708
12.4961 0.929391
12.4985 0.911761
12.5008 0.921716
12.5032 0.940962
12.5055 0.931758
12.5079 0.904811
12.5102 0.916342
12.5126 0.939019
12.5149 0.925913
12.5172 0.961398
12.5196 1.01692
12.5219 0.997995
12.5243 0.925437
12.5266 0.967375
12.529 0.994461
12.5313 0.980995
12.5337 0.948444
12.536 0.900295
12.5384 0.900712
12.5407 0.920018
12.543 0.941691
12.5454 0.942678
12.5477 0.971512
12.5501 0.991749
12.5524 0.979457
12.5548 0.931764
12.5571 0.888385
12.5595 0.916106
12.5618 0.938375
12.5642 0.914217
12.5665 0.920163
12.5688 0.918087
12.5712 0.920144
12.5735 0.922971
12.5759 0.880296
12.5782 0.85558
12.5806 0.921954
12.5829 0.95778
12.5853 0.987045
12.5876 0.977589
12.59 1.00159
12.5923 0.957951
12.5946 0.951516
12.597 0.962564
12.5993 0.933457
12.6017 0.931064
12.604 0.954804
12.6064 0.950858
12.6087 0.932256
12.6111 0.961357
12.6134 0.962644
12.6157 0.963727
12.6181 0.960051
12.6204 0.958506
12.6228 0.968778
12.6251 0.956417
12.6275 0.95349
12.6298 0.976638
12.6322 0.970491
12.6345 0.96848
12.6369 0.978728
12.6392 0.952815
12.6415 0.954045
12.6439 0.994178
12.6462 0.991086
12.6486 0.979478
12.6509 0.936671
12.6533 0.946637
12.6556 0.933515
12.658 0.936939
12.6603 0.924202
12.6627 0.930334
12.665 0.922744
12.6673 0.924674
12.6697 0.930147
12.672 0.947312
12.6744 0.980243
12.6767 0.960461
12.6791 0.940874
12.6814 0.946993
12.6838 0.93152
12.6861 0.896253
12.6885 0.908804
12.6908 0.959707
12.6931 0.978962
12.6955 0.961384
12.6978 0.953594
12.7002 0.952878
12.7025 0.908145
12.7049 0.875331
12.7072 0.916846
12.7096 0.910419
12.7119 0.878807
12.7143 0.923981
12.7166 0.925864
12.7189 0.919182
12.7213 0.926983
12.7236 0.930982
12.726 0.950809
12.7283 0.955566
12.7307 0.980535
12.733 0.970312
12.7354 0.949616
12.7377 0.935455
12.7401 0.921108
12.7424 0.912654
12.7447 0.933657
12.7471 0.957905
12.7494 0.968189
12.7518 0.947784
12.7541 0.924425
12.7565 0.914916
12.7588 0.8949
12.7612 0.904845
12.7635 0.95486
12.7659 0.984727
12.7682 0.943747
12.7705 0.882103
12.7729 0.896697
12.7752 0.943977
12.7776 0.97008
12.7799 0.962063
12.7823 0.945525
12.7846 0.937082
12.787 0.94271
12.7893 0.938985
12.7917 0.90688
12.794 0.914515
12.7963 0.977053
12.7987 0.933511
12.801 0.927332
12.8034 0.981913
12.8057 0.949951
12.8081 0.908946
12.8104 0.887331
12.8128 0.915729
12.8151 0.928915
12.8175 0.920516
12.8198 0.935783
12.8221 0.945263
12.8245 0.968098
12.8268 0.977733
12.8292 0.978374
12.8315 0.980027
12.8339 0.983839
12.8362 0.978797
12.8386 0.963754
12.8409 0.971941
12.8433 0.98273
12.8456 0.979504
12.8479 0.974685
12.8503 0.960656
12.8526 0.954695
12.855 0.979851
12.8573 1.02087
12.8597 1.01224
12.862 0.977816
12.8644 0.946776
12.8667 0.960691
12.869 0.950164
12.8714 0.967774
12.8737 0.970819
12.8761 0.996825
12.8784 1.01933
12.8808 1.02037
12.8831 1.01099
12.8855 0.951689
12.8878 0.971204
12.8902 0.988986
12.8925 0.981569
12.8948 0.965313
12.8972 1.00362
12.8995 1.01478
12.9019 0.994306
12.9042 0.98133
12.9066 0.958359
12.9089 0.93918
12.9113 0.946519
12.9136 0.985963
12.916 1.00027
12.9183 1.0118
12.9206 1.01519
12.923 0.990721
12.9253 0.971519
12.9277 1.00249
12.93 1.02126
12.9324 1.00061
12.9347 0.995616
12.9371 0.990632
12.9394 0.983482
12.9418 0.99738
12.9441 1.00248
12.9464 1.00636
12.9488 1.01324
12.9511 1.02989
12.9535 1.02778
12.9558 0.993075
12.9582 0.966449
12.9605 0.961878
12.9629 0.931071
12.9652 0.922712
12.9676 0.990196
12.9699 1.05406
12.9722 1.05381
12.9746 1.02045
12.9769 1.0264
12.9793 1.02832
12.9816 1.04455
12.984 1.00093
12.9863 0.996071
12.9887 0.975164
12.991 0.957223
12.9934 0.998541
12.9957 1.05043
12.998 1.03933
13.0004 0.995674
13.0027 0.955191
13.0051 0.995122
13.0074 1.0112
13.0098 0.98143
13.0121 0.969502
13.0145 0.999184
13.0168 1.01937
13.0192 1.0052
13.0215 0.980765
13.0238 0.954344
13.0262 0.957862
13.0285 0.978457
13.0309 0.974264
13.0332 0.944425
13.0356 0.934141
13.0379 0.956384
13.0403 0.965719
13.0426 0.978259
13.045 0.996853
13.0473 0.976251
13.0496 0.956627
13.052 0.959501
13.0543 0.976634
13.0567 1.00192
13.059 1.02245
13.0614 0.98734
13.0637 0.968573
13.0661 0.95275
13.0684 0.971822
13.0708 0.983208
13.0731 0.982796
13.0754 0.978733
13.0778 1.00693
13.0801 0.965344
13.0825 0.99996
13.0848 1.04922
13.0872 1.05425
13.0895 1.02149
13.0919 0.943798
13.0942 1.00375
13.0966 0.998828
13.0989 0.983667
13.1012 1.03465
13.1036 1.016
13.1059 0.995563
13.1083 1.0088
13.1106 1.02831
13.113 0.990608
13.1153 1.01725
13.1177 1.05857
13.12 1.04439
13.1223 1.07264
13.1247 1.0714
13.127 1.03566
13.1294 1.00708
13.1317 1.036
13.1341 1.04428
13.1364 1.01423
13.1388 1.0318
13.1411 1.02588
13.1435 1.01473
13.1458 1.01972
13.1481 1.00956
13.1505 1.01794
13.1528 1.04888
13.1552 1.04544
13.1575 1.04694
13.1599 1.06182
13.1622 1.04858
13.1646 1.03667
13.1669 1.04935
13.1693 1.0511
13.1716 1.04666
13.1739 1.0513
13.1763 1.03222
13.1786 1.01878
13.181 1.0351
13.1833 1.03057
13.1857 1.00315
13.188 0.985435
13.1904 0.984916
13.1927 0.986224
13.1951 1.01808
13.1974 1.05524
13.1997 1.0319
13.2021 0.99995
13.2044 1.00592
13.2068 1.0351
13.2091 1.04191
13.2115 1.05124
13.2138 1.08456
13.2162 1.05261
13.2185 1.02838
13.2209 0.97473
13.2232 0.983258
13.2255 1.01887
13.2279 1.03485
13.2302 1.04531
13.2326 1.03766
13.2349 1.00077
13.2373 0.993849
13.2396 1.04236
13.242 1.05088
13.2443 1.01571
13.2467 1.02257
13.249 1.09815
13.2513 1.04747
13.2537 1.01907
13.256 1.01811
13.2584 1.05629
13.2607 1.05297
13.2631 1.06685
13.2654 1.06013
13.2678 1.06316
13.2701 1.06288
13.2725 1.07591
13.2748 1.08764
13.2771 1.04655
13.2795 1.03728
13.2818 0.993282
13.2842 1.00032
13.2865 1.01094
13.2889 1.00845
13.2912 0.999843
13.2936 1.0348
13.2959 1.03312
13.2983 1.01821
13.3006 1.04241
13.3029 1.01943
13.3053 0.996179
13.3076 1.02056
13.31 0.998338
13.3123 0.984611
13.3147 0.971419
13.317 0.993178
13.3194 1.00519
13.3217 1.03165
13.3241 1.00973
13.3264 0.991395
13.3287 0.998026
13.3311 0.98178
13.3334 0.979152
13.3358 0.976008
13.3381 0.976036
13.3405 0.970081
13.3428 0.961129
13.3452 0.960239
13.3475 0.948306
13.3499 0.95369
13.3522 0.974617
13.3545 0.976818
13.3569 0.985899
13.3592 0.99346
13.3616 0.997596
13.3639 1.00116
13.3663 0.969183
13.3686 0.954525
13.371 0.984121
13.3733 1.01318
13.3756 1.02395
13.378 1.02889
13.3803 1.03263
13.3827 1.03181
13.385 1.03102
13.3874 1.01324
13.3897 1.00436
13.3921 1.00178
13.3944 0.986926
13.3968 0.992417
13.3991 0.997741
13.4014 0.963012
13.4038 0.960716
13.4061 0.994356
13.4085 1.0245
13.4108 1.02935
13.4132 1.0208
13.4155 1.02805
13.4179 1.00599
13.4202 1.01295
13.4226 1.01099
13.4249 0.999421
13.4272 1.02693
13.4296 1.03143
13.4319 1.03836
13.4343 1.05356
13.4366 1.02737
13.439 1.02241
13.4413 1.03107
13.4437 1.03066
13.446 0.9974
13.4484 1.01652
13.4507 1.03451
13.453 1.01125
13.4554 0.968736
13.4577 0.972878
13.4601 0.984377
13.4624 1.00919
13.4648 1.00262
13.4671 1.02136
13.4695 1.01272
13.4718 0.99808
13.4742 1.01399
13.4765 1.03845
13.4788 1.0543
13.4812 1.05934
13.4835 1.0201
13.4859 1.02627
13.4882 1.03962
13.4906 1.02052
13.4929 0.980998
13.4953 0.982356
13.4976 0.984633
13.5 1.01345
13.5023 1.03479
13.5046 1.01346
13.507 1.03845
13.5093 1.05294
13.5117 1.02913
13.514 1.01352
13.5164 1.01723
13.5187 1.02228
13.5211 1.05331
13.5234 1.04907
13.5258 1.02281
13.5281 1.05136
13.5304 1.09892
13.5328 1.0751
13.5351 1.04997
13.5375 1.06856
13.5398 1.09449
13.5422 1.05228
13.5445 1.03578
13.5469 1.04013
13.5492 1.04934
13.5516 1.07326
13.5539 1.02981
13.5562 1.00059
13.5586 0.981357
13.5609 1.05005
13.5633 1.078
13.5656 1.03378
13.568 1.04441
13.5703 1.04014
13.5727 1.05078
13.575 1.03339
13.5774 1.01416
13.5797 1.01385
13.582 1.0282
13.5844 1.08183
13.5867 1.06895
13.5891 1.0261
13.5914 1.01618
13.5938 0.974648
13.5961 0.977964
13.5985 1.03909
13.6008 1.03443
13.6032 1.04884
13.6055 1.04694
13.6078 1.04415
13.6102 1.08956
13.6125 1.05228
13.6149 1.02591
13.6172 0.978983
13.6196 0.98576
13.6219 1.03156
13.6243 1.02546
13.6266 1.01915
13.6289 1.01673
13.6313 1.01656
13.6336 1.03146
13.636 1.03946
13.6383 1.02876
13.6407 1.02458
13.643 1.01387
13.6454 0.994161
13.6477 1.01651
13.6501 1.03919
13.6524 1.03461
13.6547 1.00531
13.6571 1.02012
13.6594 1.02205
13.6618 1.03175
13.6641 1.06624
13.6665 1.05684
13.6688 1.02252
13.6712 1.01035
13.6735 1.04944
13.6759 1.04875
13.6782 1.01843
13.6805 1.01436
13.6829 1.01484
13.6852 1.03603
13.6876 1.05036
13.6899 1.03619
13.6923 1.03696
13.6946 1.04794
13.697 1.06104
13.6993 1.0649
13.7017 1.06886
13.704 1.039
13.7063 0.985997
13.7087 1.03787
13.711 1.05551
13.7134 1.01462
13.7157 0.985797
13.7181 0.990606
13.7204 0.977773
13.7228 0.957539
13.7251 0.972399
13.7275 1.02635
13.7298 1.0573
13.7321 1.02698
13.7345 1.00495
13.7368 0.993038
13.7392 0.971968
13.7415 0.969393
13.7439 0.974465
13.7462 0.99687
13.7486 1.01352
13.7509 0.984615
13.7533 0.966104
13.7556 0.976663
13.7579 0.997228
13.7603 1.02135
13.7626 1.03332
13.765 1.01938
13.7673 1.03552
13.7697 0.998469
13.772 0.943934
13.7744 0.945566
13.7767 0.975361
13.7791 1.02268
13.7814 1.00545
13.7837 0.959238
13.7861 0.97101
13.7884 0.986753
13.7908 1.00878
13.7931 1.03052
13.7955 1.0154
13.7978 1.01633
13.8002 0.981516
13.8025 0.98896
13.8049 1.00315
13.8072 0.977923
13.8095 0.960854
13.8119 0.98152
13.8142 0.992462
13.8166 0.973042
13.8189 0.968844
13.8213 0.960536
13.8236 0.987782
13.826 1.00329
13.8283 1.04432
13.8307 0.975205
13.833 0.984165
13.8353 0.97018
13.8377 0.953304
13.84 0.995759
13.8424 1.00684
13.8447 1.02354
13.8471 1.03494
13.8494 1.01239
13.8518 1.03474
13.8541 1.04527
13.8565 0.988189
13.8588 0.978757
13.8611 0.999192
13.8635 1.01723
13.8658 1.06358
13.8682 1.07946
13.8705 1.07497
13.8729 1.06268
13.8752 1.02572
13.8776 1.01123
13.8799 1.01145
13.8822 0.986691
13.8846 0.979784
13.8869 0.996836
13.8893 1.04705
13.8916 1.06196
13.894 1.04142
13.8963 1.02308
13.8987 1.01144
13.901 0.991415
13.9034 1.02639
13.9057 1.03015
13.908 0.996252
13.9104 0.984219
13.9127 0.976698
13.9151 0.993381
13.9174 1.03157
13.9198 1.04845
13.9221 1.02103
13.9245 1.0013
13.9268 0.992835
13.9292 0.992497
13.9315 1.00905
13.9338 1.01135
13.9362 0.973723
13.9385 0.957613
13.9409 0.984273
13.9432 1.0268
13.9456 1.04979
13.9479 0.985559
13.9503 0.943964
13.9526 0.955056
13.955 1.02582
13.9573 1.04261
13.9596 1.02904
13.962 1.02324
13.9643 1.05946
13.9667 1.06909
13.969 0.990108
13.9714 0.985374
13.9737 0.999626
13.9761 1.03987
13.9784 1.02042
13.9808 1.01265
13.9831 0.974734
13.9854 1.0086
13.9878 1.04029
13.9901 1.01887
13.9925 1.01296
13.9948 1.00766
13.9972 1.06024
13.9995 1.02974
14.0019 0.993701
14.0042 0.999583
14.0066 0.958112
14.0089 0.994328
14.0112 1.04127
14.0136 1.01961
14.0159 1.02341
14.0183 1.01414
14.0206 0.997552
14.023 0.970782
14.0253 1.01815
14.0277 1.07235
14.03 1.065
14.0324 1.01254
14.0347 0.994469
14.037 1.02165
14.0394 1.04182
14.0417 1.04127
14.0441 1.04631
14.0464 1.0685
14.0488 1.08184
14.0511 1.04473
14.0535 1.00964
14.0558 1.02023
14.0582 1.03154
14.0605 1.01588
14.0628 1.03403
14.0652 1.04793
14.0675 1.08211
14.0699 1.04943
14.0722 1.00909
14.0746 1.03038
14.0769 1.01978
14.0793 1.02051
14.0816 1.06149
14.084 1.0533
14.0863 1.08916
14.0886 1.04636
14.091 1.02427
14.0933 1.06919
14.0957 1.07213
14.098 1.04508
14.1004 1.01217
14.1027 1.04739
14.1051 1.04887
14.1074 1.00623
14.1098 0.980935
14.1121 0.963789
14.1144 0.965907
14.1168 1.00437
14.1191 1.06401
14.1215 1.09678
14.1238 1.04661
14.1262 1.03003
14.1285 1.04053
14.1309 1.02622
14.1332 0.974651
14.1355 0.985906
14.1379 1.03756
14.1402 1.06216
14.1426 1.03493
14.1449 1.00825
14.1473 0.99622
14.1496 1.00266
14.152 1.01422
14.1543 1.02875
14.1567 1.04169
14.159 1.05018
14.1613 1.03638
14.1637 1.0263
14.166 1.00353
14.1684 0.999024
14.1707 0.98641
14.1731 0.980982
14.1754 1.00895
14.1778 0.986192
14.1801 0.9791
14.1825 0.964522
14.1848 0.995062
14.1871 1.01173
14.1895 0.981747
14.1918 0.965289
14.1942 0.98572
14.1965 1.00097
14.1989 1.01594
14.2012 0.987847
14.2036 0.978461
14.2059 0.986313
14.2083 0.979329
14.2106 0.969136
14.2129 0.984952
14.2153 1.01988
14.2176 1.02616
14.22 0.994562
14.2223 1.02298
14.2247 1.01258
14.227 0.970265
14.2294 0.98389
14.2317 0.996985
14.2341 0.999589
14.2364 1.006
14.2387 0.998362
14.2411 0.993254
14.2434 1.0444
14.2458 1.05251
14.2481 1.04908
14.2505 1.08711
14.2528 1.0398
14.2552 0.993717
14.2575 0.944339
14.2599 0.946378
14.2622 0.981955
14.2645 1.01018
14.2669 1.01878
14.2692 1.05436
14.2716 1.05919
14.2739 1.03792
14.2763 1.07816
14.2786 1.08572
14.281 1.04454
14.2833 1.02643
14.2857 1.05651
14.288 1.04885
14.2903 1.03508
14.2927 1.06731
14.295 1.09563
14.2974 1.10047
14.2997 1.099
14.3021 1.07693
14.3044 1.04998
14.3068 1.06972
14.3091 1.06606
14.3115 1.06864
14.3138 1.02321
14.3161 1.01159
14.3185 1.01841
14.3208 1.00734
14.3232 1.04161
14.3255 1.1066
14.3279 1.11369
14.3302 1.08941
14.3326 1.1202
14.3349 1.0716
14.3373 1.05604
14.3396 1.05777
14.3419 1.06475
14.3443 1.08155
14.3466 1.08209
14.349 1.07693
14.3513 1.05846
14.3537 1.05076
14.356 1.07456
14.3584 1.05072
14.3607 1.02721
14.3631 1.06144
14.3654 1.06416
14.3677 1.06698
14.3701 1.07746
14.3724 1.0646
14.3748 1.04714
14.3771 1.03421
14.3795 1.00145
14.3818 1.02766
14.3842 1.03826
14.3865 1.01478
14.3888 1.01747
14.3912 1.04047
14.3935 1.08466
14.3959 1.01701
14.3982 0.979405
14.4006 1.00067
14.4029 1.06506
14.4053 1.09838
14.4076 1.07385
14.41 1.03414
14.4123 0.997688
14.4146 1.03821
14.417 1.0424
14.4193 0.99118
14.4217 0.974069
14.424 1.01848
14.4264 1.01284
14.4287 0.99018
14.4311 1.00155
14.4334 1.02812
14.4358 0.989427
14.4381 0.986718
14.4404 1.00249
14.4428 0.983203
14.4451 0.985204
14.4475 1.01997
14.4498 0.966065
14.4522 0.963084
14.4545 0.969666
14.4569 0.917037
14.4592 0.924418
14.4616 1.00373
14.4639 1.01243
14.4662 0.998565
14.4686 0.96695
14.4709 1.00523
14.4733 1.00712
14.4756 1.00723
14.478 1.03961
14.4803 1.00301
14.4827 0.979368
14.485 1.04253
14.4874 1.0466
14.4897 1.02104
14.492 0.996462
14.4944 0.988421
14.4967 0.989748
14.4991 0.985709
14.5014 0.958905
14.5038 0.968106
14.5061 0.97344
14.5085 1.01674
14.5108 1.07009
14.5132 1.00442
14.5155 0.94655
14.5178 0.942256
14.5202 0.938072
14.5225 1.01828
14.5249 1.04647
14.5272 1.00495
14.5296 0.954262
14.5319 0.957103
14.5343 0.980505
14.5366 1.00305
14.539 0.980587
14.5413 0.954988
14.5436 0.978141
14.546 0.978654
14.5483 0.978485
14.5507 0.963992
14.553 1.00397
14.5554 1.00843
14.5577 0.984437
14.5601 0.955725
14.5624 0.974089
14.5648 0.998331
14.5671 0.973482
14.5694 0.989505
14.5718 1.01761
14.5741 1.02776
14.5765 1.02379
14.5788 1.00348
14.5812 1.00609
14.5835 1.0114
14.5859 1.0014
14.5882 0.976157
14.5906 0.949306
14.5929 0.95125
14.5952 0.954925
14.5976 0.92272
14.5999 0.952969
14.6023 0.982436
14.6046 0.977454
14.607 0.99941
14.6093 0.975001
14.6117 0.981904
14.614 0.9958
14.6164 0.946405
14.6187 0.926829
14.621 0.944465
14.6234 0.949842
14.6257 0.922306
14.6281 0.929329
14.6304 0.937314
14.6328 0.973269
14.6351 0.98789
14.6375 0.956704
14.6398 0.988792
14.6421 0.998722
14.6445 0.92891
14.6468 0.920288
14.6492 0.982766
14.6515 0.989052
14.6539 0.977106
14.6562 0.9489
14.6586 0.93861
14.6609 0.972864
14.6633 1.01784
14.6656 0.973521
14.6679 0.929418
14.6703 0.933397
14.6726 0.985171
14.675 1.03447
14.6773 1.00424
14.6797 0.975764
14.682 0.958129
14.6844 0.934338
14.6867 0.966412
14.6891 1.00281
14.6914 1.0102
14.6937 0.976532
14.6961 0.920081
14.6984 0.929501
14.7008 0.865096
14.7031 0.897164
14.7055 0.955939
14.7078 0.984729
14.7102 1.0197
14.7125 1.0125
14.7149 1.00168
14.7172 1.0053
14.7195 0.953818
14.7219 0.972802
14.7242 0.982023
14.7266 0.90131
14.7289 0.938922
14.7313 0.960555
14.7336 0.956192
14.736 0.990663
14.7383 0.960435
14.7407 0.955022
14.743 1.01299
14.7453 0.996574
14.7477 0.953013
14.75 0.959343
14.7524 0.950282
14.7547 0.945439
14.7571 0.933387
14.7594 0.945657
14.7618 0.931038
14.7641 0.940505
14.7665 0.983817
14.7688 0.985939
14.7711 0.986766
14.7735 0.985067
14.7758 0.952089
14.7782 0.905791
14.7805 0.931277
14.7829 0.982299
14.7852 1.00059
14.7876 1.02632
14.7899 1.0262
14.7923 0.986017
14.7946 0.922065
14.7969 0.92342
14.7993 0.96155
14.8016 1.02901
14.804 1.03333
14.8063 0.984271
14.8087 0.938091
14.811 0.981626
14.8134 0.953267
14.8157 0.907714
14.8181 0.920283
14.8204 0.961181
14.8227 0.957685
14.8251 1.00352
14.8274 0.998528
14.8298 0.975142
14.8321 0.960305
14.8345 0.897905
14.8368 0.916385
14.8392 0.958888
14.8415 0.969619
14.8439 0.964609
14.8462 0.962414
14.8485 0.914362
14.8509 0.931538
14.8532 0.941586
14.8556 0.920675
14.8579 0.912033
14.8603 0.917553
14.8626 0.981254
14.865 0.969758
14.8673 0.934942
14.8697 0.995355
14.872 1.00419
14.8743 0.969713
14.8767 0.974751
14.879 0.979868
14.8814 0.974243
14.8837 0.984604
14.8861 0.941407
14.8884 0.918903
14.8908 0.971111
14.8931 0.958784
14.8954 0.908304
14.8978 0.954129
14.9001 0.976492
14.9025 0.967914
14.9048 0.969343
14.9072 0.908559
14.9095 0.873583
14.9119 0.911363
14.9142 0.942269
14.9166 0.926169
14.9189 0.93586
14.9212 0.928733
14.9236 0.910498
14.9259 0.963004
14.9283 0.953734
14.9306 0.942161
14.933 0.917811
14.9353 0.904351
14.9377 0.942024
14.94 0.943611
14.9424 0.964645
14.9447 0.961265
14.947 0.960092
14.9494 0.941445
14.9517 0.930974
14.9541 0.953394
14.9564 0.967769
14.9588 0.958919
14.9611 0.925863
14.9635 0.909905
14.9658 0.943478
14.9682 0.952864
14.9705 0.950017
14.9728 0.927235
14.9752 0.936326
14.9775 0.943388
14.9799 0.936579
14.9822 0.983181
14.9846 0.992342
14.9869 0.972204
14.9893 0.930415
14.9916 0.949714
14.994 0.931426
14.9963 0.929596
14.9986 0.953182
