[DEFAULT]

version = diffpy.pdfgetx-2.2.1

# input and output specifications
dataformat = QA
inputfile = bf3_acc_r01.xyd
backgroundfiles = emptycap.xyd
outputtype = sq

# PDF calculation setup
mode = xray
composition = AlOOH
bgscales = 0.5
rpoly = 1.13
qmaxinst = 20.396
qmin = 0.406
qmax = 15
rmin = 0
rmax = 300
rstep = 0.01

# End of config --------------------------------------------------------------

#### start data
#S 1
#L Q(Ã…$^{-1}$)  S(a.u.)
0.408095 1.39854
0.41044 1.39487
0.412785 1.38998
0.415131 1.3855
0.417476 1.3836
0.419821 1.38218
0.422167 1.37856
0.424512 1.37442
0.426857 1.37071
0.429203 1.36727
0.431548 1.36197
0.433894 1.35946
0.436239 1.35715
0.438584 1.3542
0.44093 1.35322
0.443275 1.3496
0.44562 1.34692
0.447966 1.34523
0.450311 1.34377
0.452657 1.34052
0.455002 1.33719
0.457347 1.33437
0.459693 1.3326
0.462038 1.33137
0.464383 1.32755
0.466729 1.32556
0.469074 1.32301
0.47142 1.32068
0.473765 1.31867
0.47611 1.31415
0.478456 1.31322
0.480801 1.31077
0.483146 1.3088
0.485492 1.30842
0.487837 1.30458
0.490182 1.30287
0.492528 1.3013
0.494873 1.29958
0.497219 1.29755
0.499564 1.29445
0.501909 1.29193
0.504255 1.28994
0.5066 1.28835
0.508945 1.28677
0.511291 1.28373
0.513636 1.28044
0.515982 1.27939
0.518327 1.27989
0.520672 1.28023
0.523018 1.27745
0.525363 1.27489
0.527708 1.27193
0.530054 1.26861
0.532399 1.26525
0.534745 1.26268
0.53709 1.26231
0.539435 1.26083
0.541781 1.25844
0.544126 1.25652
0.546471 1.25651
0.548817 1.25375
0.551162 1.25097
0.553507 1.24972
0.555853 1.25055
0.558198 1.24729
0.560544 1.24535
0.562889 1.24579
0.565234 1.24652
0.56758 1.24412
0.569925 1.24059
0.57227 1.23831
0.574616 1.23647
0.576961 1.23492
0.579307 1.23391
0.581652 1.23515
0.583997 1.23307
0.586343 1.22936
0.588688 1.22606
0.591033 1.22551
0.593379 1.22434
0.595724 1.2215
0.59807 1.21995
0.600415 1.21958
0.60276 1.21788
0.605106 1.21567
0.607451 1.21457
0.609796 1.21358
0.612142 1.21236
0.614487 1.21112
0.616832 1.2117
0.619178 1.20923
0.621523 1.20567
0.623869 1.20307
0.626214 1.20371
0.628559 1.19923
0.630905 1.19792
0.63325 1.19781
0.635595 1.19706
0.637941 1.19407
0.640286 1.19332
0.642632 1.19172
0.644977 1.19117
0.647322 1.19141
0.649668 1.18863
0.652013 1.18747
0.654358 1.1875
0.656704 1.18667
0.659049 1.18341
0.661395 1.17669
0.66374 1.17875
0.666085 1.17997
0.668431 1.1786
0.670776 1.17525
0.673121 1.17423
0.675467 1.17399
0.677812 1.17091
0.680158 1.16863
0.682503 1.16898
0.684848 1.16821
0.687194 1.16773
0.689539 1.16367
0.691884 1.16011
0.69423 1.16024
0.696575 1.16292
0.69892 1.16429
0.701266 1.16198
0.703611 1.15884
0.705957 1.15679
0.708302 1.1522
0.710647 1.15104
0.712993 1.14974
0.715338 1.14857
0.717683 1.14828
0.720029 1.14935
0.722374 1.14644
0.72472 1.14536
0.727065 1.14573
0.72941 1.14564
0.731756 1.14162
0.734101 1.14005
0.736446 1.13966
0.738792 1.13878
0.741137 1.13626
0.743483 1.13434
0.745828 1.13404
0.748173 1.1342
0.750519 1.13298
0.752864 1.12928
0.755209 1.12827
0.757555 1.12863
0.7599 1.12766
0.762245 1.12561
0.764591 1.12368
0.766936 1.12303
0.769282 1.12151
0.771627 1.1203
0.773972 1.11908
0.776318 1.11714
0.778663 1.11565
0.781008 1.11463
0.783354 1.11427
0.785699 1.11373
0.788045 1.11199
0.79039 1.11177
0.792735 1.11106
0.795081 1.11156
0.797426 1.11231
0.799771 1.11116
0.802117 1.1089
0.804462 1.10774
0.806808 1.1071
0.809153 1.10565
0.811498 1.10189
0.813844 1.1011
0.816189 1.10118
0.818534 1.09908
0.82088 1.0961
0.823225 1.09612
0.82557 1.09571
0.827916 1.09552
0.830261 1.09519
0.832607 1.09422
0.834952 1.09204
0.837297 1.09064
0.839643 1.08861
0.841988 1.08762
0.844333 1.08708
0.846679 1.08444
0.849024 1.08274
0.85137 1.08185
0.853715 1.08234
0.85606 1.08337
0.858406 1.08274
0.860751 1.08245
0.863096 1.08015
0.865442 1.07742
0.867787 1.07585
0.870133 1.07709
0.872478 1.07483
0.874823 1.07462
0.877169 1.07423
0.879514 1.07267
0.881859 1.0707
0.884205 1.07151
0.88655 1.07163
0.888896 1.06889
0.891241 1.06502
0.893586 1.0677
0.895932 1.06722
0.898277 1.06562
0.900622 1.06408
0.902968 1.06362
0.905313 1.06515
0.907658 1.06225
0.910004 1.06113
0.912349 1.05947
0.914695 1.05621
0.91704 1.05351
0.919385 1.05563
0.921731 1.05638
0.924076 1.05596
0.926421 1.05487
0.928767 1.05317
0.931112 1.05116
0.933458 1.04929
0.935803 1.04774
0.938148 1.04632
0.940494 1.04394
0.942839 1.04328
0.945184 1.04191
0.94753 1.03973
0.949875 1.03773
0.952221 1.03939
0.954566 1.04063
0.956911 1.03928
0.959257 1.0381
0.961602 1.03913
0.963947 1.03995
0.966293 1.03755
0.968638 1.03598
0.970983 1.03598
0.973329 1.03688
0.975674 1.03464
0.97802 1.03116
0.980365 1.02983
0.98271 1.03006
0.985056 1.03034
0.987401 1.02831
0.989746 1.02789
0.992092 1.02774
0.994437 1.02641
0.996783 1.02331
0.999128 1.02186
1.00147 1.0252
1.00382 1.02551
1.00616 1.02358
1.00851 1.02182
1.01085 1.01994
1.0132 1.02013
1.01555 1.01799
1.01789 1.01558
1.02024 1.01605
1.02258 1.01849
1.02493 1.01692
1.02727 1.0171
1.02962 1.01769
1.03196 1.01576
1.03431 1.01256
1.03665 1.0135
1.039 1.01333
1.04134 1.01083
1.04369 1.00674
1.04604 1.00683
1.04838 1.00685
1.05073 1.00711
1.05307 1.00731
1.05542 1.00694
1.05776 1.00563
1.06011 1.00462
1.06245 1.00321
1.0648 1.00187
1.06714 1.00132
1.06949 0.998956
1.07183 1.00072
1.07418 1.00355
1.07653 1.00521
1.07887 1.00404
1.08122 1.00317
1.08356 1.0026
1.08591 0.999817
1.08825 0.996833
1.0906 0.997823
1.09294 0.998688
1.09529 0.996236
1.09763 0.99524
1.09998 0.996424
1.10232 0.998054
1.10467 0.999175
1.10701 0.99672
1.10936 0.997325
1.11171 0.999531
1.11405 0.996514
1.1164 0.991755
1.11874 0.991886
1.12109 0.992701
1.12343 0.991799
1.12578 0.98821
1.12812 0.991087
1.13047 0.991372
1.13281 0.991579
1.13516 0.991728
1.1375 0.989781
1.13985 0.98805
1.1422 0.987874
1.14454 0.98874
1.14689 0.988674
1.14923 0.984268
1.15158 0.982149
1.15392 0.984004
1.15627 0.986025
1.15861 0.986443
1.16096 0.98559
1.1633 0.985357
1.16565 0.980364
1.16799 0.979206
1.17034 0.982162
1.17269 0.979658
1.17503 0.979698
1.17738 0.977991
1.17972 0.978045
1.18207 0.97865
1.18441 0.972201
1.18676 0.971383
1.1891 0.972799
1.19145 0.973478
1.19379 0.972322
1.19614 0.970765
1.19848 0.970125
1.20083 0.973279
1.20318 0.97292
1.20552 0.967303
1.20787 0.963685
1.21021 0.966127
1.21256 0.966658
1.2149 0.964602
1.21725 0.962027
1.21959 0.965318
1.22194 0.967707
1.22428 0.966216
1.22663 0.965606
1.22897 0.966797
1.23132 0.962646
1.23366 0.961107
1.23601 0.960787
1.23836 0.960399
1.2407 0.95978
1.24305 0.961116
1.24539 0.959962
1.24774 0.96015
1.25008 0.960192
1.25243 0.958772
1.25477 0.955704
1.25712 0.954321
1.25946 0.956797
1.26181 0.96015
1.26415 0.961113
1.2665 0.956493
1.26885 0.954145
1.27119 0.95473
1.27354 0.955876
1.27588 0.955703
1.27823 0.954353
1.28057 0.950965
1.28292 0.952409
1.28526 0.954257
1.28761 0.952603
1.28995 0.94852
1.2923 0.948187
1.29464 0.945497
1.29699 0.94253
1.29934 0.942161
1.30168 0.946821
1.30403 0.946305
1.30637 0.946291
1.30872 0.94719
1.31106 0.94863
1.31341 0.950178
1.31575 0.949615
1.3181 0.947984
1.32044 0.94701
1.32279 0.947463
1.32513 0.946148
1.32748 0.944637
1.32983 0.94468
1.33217 0.945007
1.33452 0.944759
1.33686 0.947004
1.33921 0.946707
1.34155 0.945145
1.3439 0.944782
1.34624 0.946793
1.34859 0.945713
1.35093 0.945716
1.35328 0.944373
1.35562 0.942649
1.35797 0.942011
1.36032 0.942999
1.36266 0.944941
1.36501 0.944984
1.36735 0.944305
1.3697 0.944829
1.37204 0.947623
1.37439 0.947541
1.37673 0.941365
1.37908 0.933301
1.38142 0.929629
1.38377 0.937781
1.38611 0.93766
1.38846 0.935241
1.3908 0.933901
1.39315 0.934941
1.3955 0.930441
1.39784 0.928025
1.40019 0.924522
1.40253 0.921626
1.40488 0.921494
1.40722 0.920607
1.40957 0.919647
1.41191 0.917008
1.41426 0.913307
1.4166 0.909884
1.41895 0.908087
1.42129 0.906279
1.42364 0.90513
1.42599 0.904203
1.42833 0.902985
1.43068 0.903252
1.43302 0.899888
1.43537 0.899629
1.43771 0.90022
1.44006 0.897359
1.4424 0.895344
1.44475 0.894562
1.44709 0.893809
1.44944 0.892269
1.45178 0.889807
1.45413 0.891214
1.45648 0.889563
1.45882 0.887616
1.46117 0.885459
1.46351 0.882689
1.46586 0.883491
1.4682 0.883235
1.47055 0.882647
1.47289 0.881999
1.47524 0.881165
1.47758 0.877431
1.47993 0.874647
1.48227 0.873204
1.48462 0.873503
1.48697 0.875483
1.48931 0.874613
1.49166 0.872736
1.494 0.871959
1.49635 0.872407
1.49869 0.873362
1.50104 0.874916
1.50338 0.869859
1.50573 0.867262
1.50807 0.868449
1.51042 0.870424
1.51276 0.860619
1.51511 0.862353
1.51745 0.864457
1.5198 0.865222
1.52215 0.866693
1.52449 0.861995
1.52684 0.862919
1.52918 0.860825
1.53153 0.857246
1.53387 0.858314
1.53622 0.861278
1.53856 0.862755
1.54091 0.861484
1.54325 0.858777
1.5456 0.857241
1.54794 0.856444
1.55029 0.852446
1.55264 0.854997
1.55498 0.859652
1.55733 0.855114
1.55967 0.849673
1.56202 0.851176
1.56436 0.851916
1.56671 0.851906
1.56905 0.854788
1.5714 0.851655
1.57374 0.849199
1.57609 0.847134
1.57843 0.846198
1.58078 0.847609
1.58313 0.850511
1.58547 0.846902
1.58782 0.843512
1.59016 0.842884
1.59251 0.844902
1.59485 0.844137
1.5972 0.84317
1.59954 0.842317
1.60189 0.841397
1.60423 0.839859
1.60658 0.835838
1.60892 0.839992
1.61127 0.841522
1.61362 0.839586
1.61596 0.839189
1.61831 0.83395
1.62065 0.833289
1.623 0.83368
1.62534 0.833372
1.62769 0.831816
1.63003 0.832656
1.63238 0.83382
1.63472 0.833969
1.63707 0.834038
1.63941 0.83608
1.64176 0.83006
1.6441 0.829128
1.64645 0.83174
1.6488 0.833627
1.65114 0.828998
1.65349 0.827881
1.65583 0.830121
1.65818 0.831157
1.66052 0.831505
1.66287 0.834805
1.66521 0.832938
1.66756 0.8308
1.6699 0.828166
1.67225 0.825913
1.67459 0.825604
1.67694 0.82523
1.67929 0.823721
1.68163 0.825667
1.68398 0.828981
1.68632 0.82716
1.68867 0.82798
1.69101 0.832051
1.69336 0.832229
1.6957 0.827922
1.69805 0.82339
1.70039 0.82621
1.70274 0.82568
1.70508 0.825269
1.70743 0.827081
1.70978 0.831911
1.71212 0.827317
1.71447 0.827563
1.71681 0.828708
1.71916 0.828269
1.7215 0.825013
1.72385 0.82778
1.72619 0.827357
1.72854 0.826655
1.73088 0.827228
1.73323 0.829555
1.73557 0.829082
1.73792 0.82797
1.74027 0.825146
1.74261 0.821924
1.74496 0.821327
1.7473 0.823036
1.74965 0.823475
1.75199 0.826664
1.75434 0.829415
1.75668 0.823823
1.75903 0.823689
1.76137 0.824625
1.76372 0.821509
1.76606 0.816872
1.76841 0.818437
1.77075 0.817543
1.7731 0.815385
1.77545 0.819121
1.77779 0.825787
1.78014 0.825461
1.78248 0.824925
1.78483 0.825494
1.78717 0.825301
1.78952 0.822874
1.79186 0.817396
1.79421 0.820287
1.79655 0.819482
1.7989 0.818404
1.80124 0.817826
1.80359 0.816837
1.80594 0.818481
1.80828 0.821951
1.81063 0.819454
1.81297 0.813766
1.81532 0.814663
1.81766 0.816628
1.82001 0.817119
1.82235 0.816755
1.8247 0.81819
1.82704 0.824939
1.82939 0.823928
1.83173 0.819027
1.83408 0.818701
1.83643 0.822294
1.83877 0.823022
1.84112 0.816202
1.84346 0.816307
1.84581 0.815174
1.84815 0.812777
1.8505 0.814129
1.85284 0.818048
1.85519 0.817458
1.85753 0.816558
1.85988 0.816035
1.86222 0.814308
1.86457 0.807688
1.86692 0.805536
1.86926 0.808172
1.87161 0.813083
1.87395 0.815815
1.8763 0.812831
1.87864 0.813479
1.88099 0.813703
1.88333 0.812737
1.88568 0.811919
1.88802 0.815523
1.89037 0.816908
1.89271 0.818041
1.89506 0.818673
1.8974 0.817498
1.89975 0.816986
1.9021 0.817634
1.90444 0.817392
1.90679 0.817041
1.90913 0.818586
1.91148 0.81726
1.91382 0.819379
1.91617 0.821189
1.91851 0.820104
1.92086 0.814896
1.9232 0.816348
1.92555 0.818504
1.92789 0.819538
1.93024 0.820632
1.93259 0.823776
1.93493 0.819314
1.93728 0.820026
1.93962 0.821293
1.94197 0.822605
1.94431 0.824944
1.94666 0.822844
1.949 0.819539
1.95135 0.819725
1.95369 0.820912
1.95604 0.818052
1.95838 0.81842
1.96073 0.819914
1.96308 0.821773
1.96542 0.823122
1.96777 0.823197
1.97011 0.823345
1.97246 0.822296
1.9748 0.820511
1.97715 0.821002
1.97949 0.826133
1.98184 0.819479
1.98418 0.825338
1.98653 0.827798
1.98887 0.822826
1.99122 0.813392
1.99357 0.823076
1.99591 0.824462
1.99826 0.825969
2.0006 0.828645
2.00295 0.830601
2.00529 0.82832
2.00764 0.830785
2.00998 0.83223
2.01233 0.832306
2.01467 0.833101
2.01702 0.840771
2.01936 0.835766
2.02171 0.831981
2.02405 0.832252
2.0264 0.835836
2.02875 0.843326
2.03109 0.846488
2.03344 0.843043
2.03578 0.838425
2.03813 0.838916
2.04047 0.838184
2.04282 0.835411
2.04516 0.840836
2.04751 0.847576
2.04985 0.846607
2.0522 0.848487
2.05454 0.849547
2.05689 0.851976
2.05924 0.852168
2.06158 0.847662
2.06393 0.851738
2.06627 0.855141
2.06862 0.856369
2.07096 0.857226
2.07331 0.860351
2.07565 0.868341
2.078 0.869301
2.08034 0.865055
2.08269 0.864305
2.08503 0.873006
2.08738 0.876065
2.08973 0.875295
2.09207 0.876111
2.09442 0.877878
2.09676 0.880024
2.09911 0.8883
2.10145 0.887045
2.1038 0.887974
2.10614 0.890714
2.10849 0.893326
2.11083 0.897137
2.11318 0.902023
2.11552 0.905493
2.11787 0.907924
2.12022 0.911125
2.12256 0.920429
2.12491 0.919201
2.12725 0.920917
2.1296 0.92551
2.13194 0.93164
2.13429 0.941261
2.13663 0.94278
2.13898 0.948274
2.14132 0.955112
2.14367 0.95926
2.14601 0.958467
2.14836 0.966894
2.1507 0.977288
2.15305 0.986653
2.1554 0.992118
2.15774 0.989196
2.16009 0.991529
2.16243 1.00022
2.16478 1.01016
2.16712 1.01709
2.16947 1.02053
2.17181 1.02336
2.17416 1.02964
2.1765 1.0377
2.17885 1.04482
2.18119 1.04712
2.18354 1.04726
2.18589 1.05355
2.18823 1.06067
2.19058 1.06503
2.19292 1.06868
2.19527 1.06665
2.19761 1.06974
2.19996 1.07216
2.2023 1.06926
2.20465 1.06003
2.20699 1.06782
2.20934 1.07238
2.21168 1.07347
2.21403 1.073
2.21638 1.07466
2.21872 1.08055
2.22107 1.08052
2.22341 1.07628
2.22576 1.07136
2.2281 1.0712
2.23045 1.07691
2.23279 1.08012
2.23514 1.08244
2.23748 1.08471
2.23983 1.08644
2.24217 1.09289
2.24452 1.09436
2.24687 1.09798
2.24921 1.1056
2.25156 1.11262
2.2539 1.10542
2.25625 1.10906
2.25859 1.11113
2.26094 1.11016
2.26328 1.11602
2.26563 1.12911
2.26797 1.13435
2.27032 1.13924
2.27266 1.14669
2.27501 1.1555
2.27735 1.16656
2.2797 1.17367
2.28205 1.17769
2.28439 1.18389
2.28674 1.20036
2.28908 1.20995
2.29143 1.21623
2.29377 1.21621
2.29612 1.21211
2.29846 1.20948
2.30081 1.20309
2.30315 1.19026
2.3055 1.1751
2.30784 1.16115
2.31019 1.15099
2.31254 1.13357
2.31488 1.1095
2.31723 1.09019
2.31957 1.0763
2.32192 1.06298
2.32426 1.04937
2.32661 1.03612
2.32895 1.02905
2.3313 1.02437
2.33364 1.01429
2.33599 0.998308
2.33833 0.996982
2.34068 0.998522
2.34303 0.997254
2.34537 0.991265
2.34772 0.991756
2.35006 0.981368
2.35241 0.973648
2.35475 0.972059
2.3571 0.975567
2.35944 0.976522
2.36179 0.973462
2.36413 0.971959
2.36648 0.971522
2.36882 0.970656
2.37117 0.972601
2.37352 0.973117
2.37586 0.975738
2.37821 0.979015
2.38055 0.980115
2.3829 0.975425
2.38524 0.977465
2.38759 0.977978
2.38993 0.976598
2.39228 0.974453
2.39462 0.971859
2.39697 0.981894
2.39931 0.994872
2.40166 1.00265
2.404 1.00082
2.40635 0.996057
2.4087 0.994768
2.41104 0.995264
2.41339 0.996745
2.41573 0.998699
2.41808 1.00126
2.42042 1.00583
2.42277 1.00763
2.42511 1.00513
2.42746 1.00149
2.4298 1.01045
2.43215 1.01156
2.43449 1.01195
2.43684 1.01209
2.43919 1.01222
2.44153 1.01335
2.44388 1.01656
2.44622 1.01983
2.44857 1.02147
2.45091 1.02188
2.45326 1.02497
2.4556 1.02601
2.45795 1.03443
2.46029 1.04104
2.46264 1.04237
2.46498 1.04424
2.46733 1.03912
2.46968 1.04033
2.47202 1.04701
2.47437 1.05542
2.47671 1.05888
2.47906 1.05894
2.4814 1.06013
2.48375 1.06384
2.48609 1.07015
2.48844 1.07776
2.49078 1.08374
2.49313 1.09172
2.49547 1.09849
2.49782 1.10539
2.50017 1.11709
2.50251 1.11861
2.50486 1.12496
2.5072 1.13054
2.50955 1.13679
2.51189 1.14929
2.51424 1.15716
2.51658 1.16722
2.51893 1.17098
2.52127 1.17328
2.52362 1.1853
2.52596 1.19638
2.52831 1.2111
2.53066 1.21691
2.533 1.22077
2.53535 1.23551
2.53769 1.23645
2.54004 1.24509
2.54238 1.25803
2.54473 1.27168
2.54707 1.28211
2.54942 1.28488
2.55176 1.27504
2.55411 1.27853
2.55645 1.29013
2.5588 1.29677
2.56114 1.29845
2.56349 1.29299
2.56584 1.29732
2.56818 1.30201
2.57053 1.29703
2.57287 1.30048
2.57522 1.29204
2.57756 1.28455
2.57991 1.27825
2.58225 1.2716
2.5846 1.26538
2.58694 1.25855
2.58929 1.25421
2.59163 1.24957
2.59398 1.2408
2.59633 1.22322
2.59867 1.2151
2.60102 1.21434
2.60336 1.21277
2.60571 1.20557
2.60805 1.19712
2.6104 1.18758
2.61274 1.18182
2.61509 1.17635
2.61743 1.16873
2.61978 1.15969
2.62212 1.16237
2.62447 1.15254
2.62682 1.14494
2.62916 1.14509
2.63151 1.1417
2.63385 1.13648
2.6362 1.12559
2.63854 1.12125
2.64089 1.12414
2.64323 1.12064
2.64558 1.11317
2.64792 1.10741
2.65027 1.10634
2.65261 1.1083
2.65496 1.10726
2.65731 1.10353
2.65965 1.10352
2.662 1.10552
2.66434 1.10935
2.66669 1.11561
2.66903 1.11503
2.67138 1.11615
2.67372 1.11697
2.67607 1.11992
2.67841 1.12878
2.68076 1.12796
2.6831 1.13544
2.68545 1.13532
2.68779 1.13119
2.69014 1.13462
2.69249 1.14403
2.69483 1.15378
2.69718 1.16286
2.69952 1.17147
2.70187 1.17931
2.70421 1.17877
2.70656 1.18246
2.7089 1.18683
2.71125 1.19148
2.71359 1.19673
2.71594 1.20226
2.71828 1.20362
2.72063 1.20556
2.72298 1.21161
2.72532 1.22212
2.72767 1.22667
2.73001 1.22117
2.73236 1.21716
2.7347 1.21852
2.73705 1.2252
2.73939 1.22969
2.74174 1.22889
2.74408 1.22818
2.74643 1.22691
2.74877 1.22315
2.75112 1.21334
2.75347 1.21436
2.75581 1.20616
2.75816 1.20116
2.7605 1.20021
2.76285 1.18002
2.76519 1.16083
2.76754 1.14716
2.76988 1.13563
2.77223 1.12374
2.77457 1.11067
2.77692 1.09509
2.77926 1.0787
2.78161 1.06257
2.78396 1.04876
2.7863 1.04012
2.78865 1.02433
2.79099 1.00825
2.79334 0.990929
2.79568 0.974949
2.79803 0.965224
2.80037 0.958018
2.80272 0.954476
2.80506 0.947213
2.80741 0.935774
2.80975 0.924405
2.8121 0.924632
2.81444 0.917099
2.81679 0.905893
2.81914 0.895534
2.82148 0.890237
2.82383 0.888967
2.82617 0.884452
2.82852 0.88274
2.83086 0.881578
2.83321 0.876965
2.83555 0.870811
2.8379 0.860052
2.84024 0.858451
2.84259 0.856601
2.84493 0.845245
2.84728 0.839523
2.84963 0.836412
2.85197 0.834164
2.85432 0.831057
2.85666 0.826471
2.85901 0.82313
2.86135 0.82178
2.8637 0.821974
2.86604 0.82402
2.86839 0.82483
2.87073 0.81323
2.87308 0.811275
2.87542 0.812666
2.87777 0.812803
2.88012 0.809499
2.88246 0.804298
2.88481 0.805371
2.88715 0.806491
2.8895 0.804974
2.89184 0.802019
2.89419 0.803373
2.89653 0.802236
2.89888 0.794514
2.90122 0.793799
2.90357 0.797249
2.90591 0.787754
2.90826 0.787472
2.91061 0.79585
2.91295 0.79834
2.9153 0.790162
2.91764 0.774633
2.91999 0.7768
2.92233 0.779579
2.92468 0.782022
2.92702 0.782313
2.92937 0.779607
2.93171 0.786302
2.93406 0.784451
2.9364 0.78063
2.93875 0.777631
2.94109 0.777273
2.94344 0.783403
2.94579 0.785257
2.94813 0.777997
2.95048 0.769372
2.95282 0.767673
2.95517 0.769618
2.95751 0.77369
2.95986 0.769094
2.9622 0.764788
2.96455 0.766688
2.96689 0.761352
2.96924 0.763377
2.97158 0.76678
2.97393 0.767901
2.97628 0.765435
2.97862 0.762362
2.98097 0.770356
2.98331 0.769173
2.98566 0.765618
2.988 0.765677
2.99035 0.771477
2.99269 0.773732
2.99504 0.770178
2.99738 0.769842
2.99973 0.774575
3.00207 0.778196
3.00442 0.787555
3.00677 0.786136
3.00911 0.783112
3.01146 0.784301
3.0138 0.792022
3.01615 0.792464
3.01849 0.793302
3.02084 0.794599
3.02318 0.798577
3.02553 0.807068
3.02787 0.804576
3.03022 0.814871
3.03256 0.827813
3.03491 0.834952
3.03726 0.832482
3.0396 0.843946
3.04195 0.852601
3.04429 0.859371
3.04664 0.867304
3.04898 0.879257
3.05133 0.894954
3.05367 0.906515
3.05602 0.914913
3.05836 0.927566
3.06071 0.946862
3.06305 0.956952
3.0654 0.975465
3.06774 0.994791
3.07009 1.01205
3.07244 1.02804
3.07478 1.05017
3.07713 1.06944
3.07947 1.09701
3.08182 1.12232
3.08416 1.14468
3.08651 1.17922
3.08885 1.1982
3.0912 1.22078
3.09354 1.25233
3.09589 1.29003
3.09823 1.32346
3.10058 1.35614
3.10293 1.37758
3.10527 1.40104
3.10762 1.42817
3.10996 1.45301
3.11231 1.47811
3.11465 1.50037
3.117 1.52817
3.11934 1.55837
3.12169 1.58296
3.12403 1.60023
3.12638 1.61539
3.12872 1.62617
3.13107 1.63607
3.13342 1.64779
3.13576 1.64964
3.13811 1.65315
3.14045 1.66488
3.1428 1.66789
3.14514 1.65498
3.14749 1.66816
3.14983 1.66419
3.15218 1.65656
3.15452 1.6453
3.15687 1.63135
3.15921 1.62103
3.16156 1.60218
3.16391 1.57761
3.16625 1.54971
3.1686 1.52412
3.17094 1.51118
3.17329 1.49029
3.17563 1.46525
3.17798 1.44013
3.18032 1.41934
3.18267 1.40719
3.18501 1.39589
3.18736 1.37538
3.1897 1.35807
3.19205 1.34637
3.19439 1.33544
3.19674 1.31824
3.19909 1.31131
3.20143 1.3068
3.20378 1.29868
3.20612 1.28594
3.20847 1.3021
3.21081 1.29414
3.21316 1.28128
3.2155 1.2692
3.21785 1.25907
3.22019 1.24903
3.22254 1.25091
3.22488 1.24745
3.22723 1.2392
3.22958 1.22851
3.23192 1.21238
3.23427 1.20128
3.23661 1.18425
3.23896 1.16783
3.2413 1.15765
3.24365 1.15404
3.24599 1.13616
3.24834 1.11567
3.25068 1.10018
3.25303 1.09039
3.25537 1.07841
3.25772 1.0649
3.26007 1.04688
3.26241 1.03263
3.26476 1.02167
3.2671 1.00649
3.26945 0.996772
3.27179 0.98702
3.27414 0.978393
3.27648 0.971238
3.27883 0.96533
3.28117 0.959803
3.28352 0.950468
3.28586 0.936631
3.28821 0.922587
3.29056 0.91261
3.2929 0.9001
3.29525 0.895667
3.29759 0.88605
3.29994 0.873544
3.30228 0.861482
3.30463 0.84445
3.30697 0.832234
3.30932 0.821758
3.31166 0.817131
3.31401 0.815383
3.31635 0.796384
3.3187 0.795983
3.32104 0.791462
3.32339 0.783704
3.32574 0.775151
3.32808 0.768297
3.33043 0.768486
3.33277 0.763413
3.33512 0.753011
3.33746 0.743273
3.33981 0.744565
3.34215 0.746854
3.3445 0.739569
3.34684 0.732737
3.34919 0.729938
3.35153 0.730115
3.35388 0.723016
3.35623 0.724289
3.35857 0.719768
3.36092 0.715468
3.36326 0.720339
3.36561 0.719659
3.36795 0.719122
3.3703 0.717063
3.37264 0.714294
3.37499 0.713984
3.37733 0.725562
3.37968 0.724593
3.38202 0.724779
3.38437 0.721918
3.38672 0.715168
3.38906 0.714481
3.39141 0.710047
3.39375 0.709142
3.3961 0.708103
3.39844 0.705773
3.40079 0.704831
3.40313 0.713259
3.40548 0.715679
3.40782 0.716222
3.41017 0.717032
3.41251 0.718842
3.41486 0.728661
3.41721 0.719414
3.41955 0.714953
3.4219 0.720315
3.42424 0.729076
3.42659 0.718061
3.42893 0.713544
3.43128 0.722314
3.43362 0.731122
3.43597 0.727085
3.43831 0.725895
3.44066 0.728635
3.443 0.736555
3.44535 0.743627
3.44769 0.746207
3.45004 0.750048
3.45239 0.749407
3.45473 0.756787
3.45708 0.764315
3.45942 0.76681
3.46177 0.766016
3.46411 0.765721
3.46646 0.773605
3.4688 0.78103
3.47115 0.782952
3.47349 0.77876
3.47584 0.778999
3.47818 0.783009
3.48053 0.789581
3.48288 0.794338
3.48522 0.792585
3.48757 0.795586
3.48991 0.794013
3.49226 0.792352
3.4946 0.793739
3.49695 0.798597
3.49929 0.795725
3.50164 0.792141
3.50398 0.783343
3.50633 0.773545
3.50867 0.769148
3.51102 0.778047
3.51337 0.776131
3.51571 0.774867
3.51806 0.771661
3.5204 0.764479
3.52275 0.754558
3.52509 0.758455
3.52744 0.760002
3.52978 0.758245
3.53213 0.755501
3.53447 0.756495
3.53682 0.747592
3.53916 0.740316
3.54151 0.743173
3.54386 0.747697
3.5462 0.73784
3.54855 0.733599
3.55089 0.727209
3.55324 0.728006
3.55558 0.732108
3.55793 0.732021
3.56027 0.727608
3.56262 0.719049
3.56496 0.71869
3.56731 0.720609
3.56965 0.718453
3.572 0.715873
3.57434 0.714248
3.57669 0.714471
3.57904 0.715514
3.58138 0.716809
3.58373 0.718971
3.58607 0.718006
3.58842 0.716409
3.59076 0.715195
3.59311 0.716595
3.59545 0.723612
3.5978 0.726154
3.60014 0.723614
3.60249 0.72453
3.60483 0.727145
3.60718 0.724901
3.60953 0.724544
3.61187 0.722148
3.61422 0.718755
3.61656 0.717892
3.61891 0.72188
3.62125 0.723631
3.6236 0.722196
3.62594 0.716621
3.62829 0.711446
3.63063 0.709734
3.63298 0.708118
3.63532 0.70929
3.63767 0.709966
3.64002 0.711043
3.64236 0.711171
3.64471 0.705317
3.64705 0.709677
3.6494 0.716908
3.65174 0.71683
3.65409 0.709805
3.65643 0.705057
3.65878 0.705322
3.66112 0.706597
3.66347 0.711271
3.66581 0.716351
3.66816 0.717158
3.67051 0.715959
3.67285 0.712358
3.6752 0.714305
3.67754 0.71928
3.67989 0.72238
3.68223 0.72047
3.68458 0.721369
3.68692 0.721968
3.68927 0.72111
3.69161 0.717864
3.69396 0.711131
3.6963 0.715805
3.69865 0.718141
3.70099 0.718645
3.70334 0.718024
3.70569 0.716385
3.70803 0.709488
3.71038 0.716771
3.71272 0.720631
3.71507 0.72314
3.71741 0.73504
3.71976 0.722419
3.7221 0.717966
3.72445 0.725118
3.72679 0.731529
3.72914 0.725472
3.73148 0.725422
3.73383 0.712943
3.73618 0.711057
3.73852 0.716515
3.74087 0.720988
3.74321 0.715615
3.74556 0.723465
3.7479 0.725323
3.75025 0.726069
3.75259 0.726812
3.75494 0.721198
3.75728 0.730601
3.75963 0.735511
3.76197 0.733981
3.76432 0.730561
3.76667 0.733264
3.76901 0.729193
3.77136 0.735192
3.7737 0.738267
3.77605 0.73363
3.77839 0.723693
3.78074 0.732125
3.78308 0.738772
3.78543 0.737984
3.78777 0.73611
3.79012 0.738522
3.79246 0.740132
3.79481 0.736934
3.79716 0.74043
3.7995 0.744978
3.80185 0.746785
3.80419 0.747438
3.80654 0.743282
3.80888 0.738694
3.81123 0.740129
3.81357 0.748803
3.81592 0.759926
3.81826 0.742796
3.82061 0.745703
3.82295 0.754049
3.8253 0.761167
3.82765 0.764355
3.82999 0.763558
3.83234 0.762987
3.83468 0.762762
3.83703 0.76593
3.83937 0.774007
3.84172 0.782264
3.84406 0.777831
3.84641 0.776066
3.84875 0.778752
3.8511 0.78155
3.85344 0.772928
3.85579 0.773688
3.85813 0.77871
3.86048 0.780884
3.86283 0.779023
3.86517 0.77748
3.86752 0.786554
3.86986 0.782238
3.87221 0.785928
3.87455 0.791336
3.8769 0.785988
3.87924 0.795915
3.88159 0.797388
3.88393 0.797843
3.88628 0.795033
3.88862 0.788794
3.89097 0.79082
3.89332 0.795257
3.89566 0.79215
3.89801 0.791319
3.90035 0.793556
3.9027 0.783905
3.90504 0.790874
3.90739 0.797313
3.90973 0.804594
3.91208 0.810798
3.91442 0.811809
3.91677 0.80981
3.91911 0.810616
3.92146 0.809418
3.92381 0.806692
3.92615 0.804995
3.9285 0.806452
3.93084 0.806561
3.93319 0.813464
3.93553 0.819968
3.93788 0.819835
3.94022 0.816697
3.94257 0.80974
3.94491 0.808626
3.94726 0.815608
3.9496 0.824859
3.95195 0.821774
3.9543 0.817863
3.95664 0.82733
3.95899 0.833669
3.96133 0.832483
3.96368 0.82781
3.96602 0.821781
3.96837 0.833299
3.97071 0.84397
3.97306 0.849771
3.9754 0.851181
3.97775 0.846948
3.98009 0.856601
3.98244 0.865086
3.98478 0.868224
3.98713 0.867684
3.98948 0.873451
3.99182 0.87879
3.99417 0.889385
3.99651 0.893251
3.99886 0.890362
4.0012 0.893123
4.00355 0.897963
4.00589 0.901973
4.00824 0.914397
4.01058 0.92843
4.01293 0.931524
4.01527 0.929308
4.01762 0.932375
4.01997 0.936559
4.02231 0.941856
4.02466 0.948736
4.027 0.95625
4.02935 0.977118
4.03169 0.991424
4.03404 0.998769
4.03638 1.00223
4.03873 1.00688
4.04107 1.02214
4.04342 1.03769
4.04576 1.04607
4.04811 1.04839
4.05046 1.05273
4.0528 1.0732
4.05515 1.09104
4.05749 1.09941
4.05984 1.10342
4.06218 1.11179
4.06453 1.12918
4.06687 1.12924
4.06922 1.13333
4.07156 1.14295
4.07391 1.15409
4.07625 1.15807
4.0786 1.16485
4.08095 1.16869
4.08329 1.16212
4.08564 1.15039
4.08798 1.15044
4.09033 1.15259
4.09267 1.14664
4.09502 1.14579
4.09736 1.14932
4.09971 1.15017
4.10205 1.14596
4.1044 1.14129
4.10674 1.14124
4.10909 1.13548
4.11143 1.11823
4.11378 1.10537
4.11613 1.12665
4.11847 1.13428
4.12082 1.12857
4.12316 1.11711
4.12551 1.11142
4.12785 1.13052
4.1302 1.13353
4.13254 1.13028
4.13489 1.12668
4.13723 1.12648
4.13958 1.13958
4.14192 1.1314
4.14427 1.13322
4.14662 1.14002
4.14896 1.13981
4.15131 1.13387
4.15365 1.13211
4.156 1.13205
4.15834 1.13224
4.16069 1.13274
4.16303 1.13586
4.16538 1.13976
4.16772 1.14149
4.17007 1.13412
4.17241 1.12823
4.17476 1.14269
4.17711 1.135
4.17945 1.12668
4.1818 1.12344
4.18414 1.13083
4.18649 1.14777
4.18883 1.14675
4.19118 1.13637
4.19352 1.13283
4.19587 1.13039
4.19821 1.12526
4.20056 1.12342
4.2029 1.11304
4.20525 1.11453
4.2076 1.11658
4.20994 1.12051
4.21229 1.13634
4.21463 1.1215
4.21698 1.12004
4.21932 1.11941
4.22167 1.11881
4.22401 1.12026
4.22636 1.11607
4.2287 1.11278
4.23105 1.10328
4.23339 1.09432
4.23574 1.09112
4.23808 1.09087
4.24043 1.0814
4.24278 1.07624
4.24512 1.08291
4.24747 1.0919
4.24981 1.08031
4.25216 1.06152
4.2545 1.06273
4.25685 1.07091
4.25919 1.073
4.26154 1.06178
4.26388 1.05898
4.26623 1.05962
4.26857 1.05401
4.27092 1.05309
4.27327 1.06333
4.27561 1.0741
4.27796 1.07208
4.2803 1.07364
4.28265 1.0779
4.28499 1.08598
4.28734 1.10035
4.28968 1.0977
4.29203 1.09613
4.29437 1.10195
4.29672 1.11109
4.29906 1.11685
4.30141 1.12317
4.30376 1.12356
4.3061 1.12916
4.30845 1.13919
4.31079 1.1476
4.31314 1.14217
4.31548 1.14727
4.31783 1.14535
4.32017 1.14591
4.32252 1.15515
4.32486 1.17337
4.32721 1.17773
4.32955 1.17851
4.3319 1.18579
4.33425 1.19613
4.33659 1.20363
4.33894 1.21901
4.34128 1.21083
4.34363 1.20842
4.34597 1.21253
4.34832 1.22141
4.35066 1.23783
4.35301 1.23496
4.35535 1.24614
4.3577 1.25471
4.36004 1.25941
4.36239 1.2733
4.36473 1.29822
4.36708 1.30012
4.36943 1.30762
4.37177 1.31871
4.37412 1.32348
4.37646 1.32834
4.37881 1.35467
4.38115 1.38612
4.3835 1.40454
4.38584 1.41021
4.38819 1.43495
4.39053 1.46378
4.39288 1.48419
4.39522 1.50073
4.39757 1.51667
4.39992 1.53519
4.40226 1.57492
4.40461 1.61825
4.40695 1.65303
4.4093 1.67853
4.41164 1.70051
4.41399 1.73361
4.41633 1.77218
4.41868 1.81294
4.42102 1.85655
4.42337 1.90163
4.42571 1.94364
4.42806 1.98972
4.43041 2.04042
4.43275 2.09756
4.4351 2.16257
4.43744 2.2341
4.43979 2.29175
4.44213 2.34667
4.44448 2.41155
4.44682 2.49539
4.44917 2.59398
4.45151 2.67096
4.45386 2.74393
4.4562 2.82408
4.45855 2.90734
4.4609 2.98489
4.46324 3.04587
4.46559 3.12078
4.46793 3.19135
4.47028 3.24545
4.47262 3.28667
4.47497 3.33105
4.47731 3.41923
4.47966 3.48062
4.482 3.52687
4.48435 3.56734
4.48669 3.61063
4.48904 3.66351
4.49138 3.71537
4.49373 3.74222
4.49608 3.77404
4.49842 3.81623
4.50077 3.85028
4.50311 3.8586
4.50546 3.88163
4.5078 3.88232
4.51015 3.85491
4.51249 3.80483
4.51484 3.73193
4.51718 3.69636
4.51953 3.65298
4.52187 3.57356
4.52422 3.46186
4.52657 3.364
4.52891 3.25642
4.53126 3.11775
4.5336 2.96361
4.53595 2.80757
4.53829 2.66052
4.54064 2.53011
4.54298 2.39855
4.54533 2.27987
4.54767 2.1578
4.55002 2.02435
4.55236 1.91132
4.55471 1.83406
4.55706 1.75306
4.5594 1.67752
4.56175 1.60557
4.56409 1.52327
4.56644 1.46001
4.56878 1.39377
4.57113 1.34295
4.57347 1.30394
4.57582 1.26704
4.57816 1.23895
4.58051 1.2101
4.58285 1.18589
4.5852 1.15792
4.58755 1.12248
4.58989 1.08673
4.59224 1.07388
4.59458 1.05698
4.59693 1.03465
4.59927 1.01415
4.60162 1.0061
4.60396 1.00388
4.60631 0.973423
4.60865 0.961046
4.611 0.959369
4.61334 0.952979
4.61569 0.942465
4.61803 0.923632
4.62038 0.917677
4.62273 0.918964
4.62507 0.917432
4.62742 0.902755
4.62976 0.897348
4.63211 0.898691
4.63445 0.900857
4.6368 0.893897
4.63914 0.873024
4.64149 0.860545
4.64383 0.874198
4.64618 0.868779
4.64852 0.850681
4.65087 0.8386
4.65322 0.857032
4.65556 0.837639
4.65791 0.840935
4.66025 0.841612
4.6626 0.836853
4.66494 0.835769
4.66729 0.827381
4.66963 0.822476
4.67198 0.827022
4.67432 0.832131
4.67667 0.831199
4.67901 0.830705
4.68136 0.836516
4.68371 0.823411
4.68605 0.809478
4.6884 0.803921
4.69074 0.804964
4.69309 0.80408
4.69543 0.808522
4.69778 0.804484
4.70012 0.802839
4.70247 0.811569
4.70481 0.801253
4.70716 0.807027
4.7095 0.804212
4.71185 0.798797
4.7142 0.797796
4.71654 0.804569
4.71889 0.797368
4.72123 0.800815
4.72358 0.801704
4.72592 0.798695
4.72827 0.794694
4.73061 0.784076
4.73296 0.779382
4.7353 0.785539
4.73765 0.790733
4.73999 0.791738
4.74234 0.803919
4.74468 0.802518
4.74703 0.796826
4.74938 0.797749
4.75172 0.802073
4.75407 0.799421
4.75641 0.795241
4.75876 0.789105
4.7611 0.788109
4.76345 0.791367
4.76579 0.79445
4.76814 0.789591
4.77048 0.800162
4.77283 0.800424
4.77517 0.796044
4.77752 0.791637
4.77987 0.790256
4.78221 0.804174
4.78456 0.804132
4.7869 0.807352
4.78925 0.80565
4.79159 0.792976
4.79394 0.79195
4.79628 0.791368
4.79863 0.799832
4.80097 0.803253
4.80332 0.798578
4.80566 0.796184
4.80801 0.798248
4.81036 0.797976
4.8127 0.805594
4.81505 0.817869
4.81739 0.825056
4.81974 0.813242
4.82208 0.816025
4.82443 0.831572
4.82677 0.84667
4.82912 0.853414
4.83146 0.853455
4.83381 0.852415
4.83615 0.852333
4.8385 0.846945
4.84085 0.841758
4.84319 0.844459
4.84554 0.845771
4.84788 0.855089
4.85023 0.859422
4.85257 0.859258
4.85492 0.859296
4.85726 0.866874
4.85961 0.861856
4.86195 0.874025
4.8643 0.881501
4.86664 0.878973
4.86899 0.871927
4.87133 0.867086
4.87368 0.874956
4.87603 0.878899
4.87837 0.874825
4.88072 0.866855
4.88306 0.869083
4.88541 0.86899
4.88775 0.868909
4.8901 0.876354
4.89244 0.884883
4.89479 0.881978
4.89713 0.878622
4.89948 0.878431
4.90182 0.87476
4.90417 0.871282
4.90652 0.869764
4.90886 0.863219
4.91121 0.86212
4.91355 0.862753
4.9159 0.862077
4.91824 0.861802
4.92059 0.864691
4.92293 0.851554
4.92528 0.849843
4.92762 0.855352
4.92997 0.86362
4.93231 0.868097
4.93466 0.858194
4.93701 0.84596
4.93935 0.848266
4.9417 0.850469
4.94404 0.848775
4.94639 0.849711
4.94873 0.858443
4.95108 0.869455
4.95342 0.870522
4.95577 0.868327
4.95811 0.871711
4.96046 0.881354
4.9628 0.89595
4.96515 0.889872
4.9675 0.883374
4.96984 0.884071
4.97219 0.886176
4.97453 0.888895
4.97688 0.892864
4.97922 0.888426
4.98157 0.884009
4.98391 0.887306
4.98626 0.890189
4.9886 0.895609
4.99095 0.893342
4.99329 0.884691
4.99564 0.879512
4.99799 0.890629
5.00033 0.893325
5.00268 0.888252
5.00502 0.887344
5.00737 0.8866
5.00971 0.880484
5.01206 0.871997
5.0144 0.858635
5.01675 0.855435
5.01909 0.861774
5.02144 0.868517
5.02378 0.86294
5.02613 0.860479
5.02847 0.862074
5.03082 0.859451
5.03317 0.849005
5.03551 0.83499
5.03786 0.837519
5.0402 0.844324
5.04255 0.854804
5.04489 0.862969
5.04724 0.866883
5.04958 0.867946
5.05193 0.859581
5.05427 0.843232
5.05662 0.842505
5.05896 0.851262
5.06131 0.858089
5.06366 0.860451
5.066 0.855204
5.06835 0.85331
5.07069 0.853559
5.07304 0.855366
5.07538 0.858172
5.07773 0.851818
5.08007 0.843067
5.08242 0.841493
5.08476 0.844367
5.08711 0.846953
5.08945 0.847796
5.0918 0.846278
5.09415 0.843657
5.09649 0.844247
5.09884 0.84565
5.10118 0.842309
5.10353 0.844531
5.10587 0.848459
5.10822 0.853616
5.11056 0.85186
5.11291 0.840094
5.11525 0.828735
5.1176 0.826948
5.11994 0.826424
5.12229 0.830812
5.12464 0.834712
5.12698 0.830687
5.12933 0.838757
5.13167 0.817757
5.13402 0.818595
5.13636 0.820971
5.13871 0.809129
5.14105 0.80097
5.1434 0.812818
5.14574 0.798676
5.14809 0.793083
5.15043 0.795497
5.15278 0.787886
5.15512 0.776533
5.15747 0.785016
5.15982 0.788169
5.16216 0.788637
5.16451 0.787749
5.16685 0.778498
5.1692 0.771695
5.17154 0.79011
5.17389 0.79528
5.17623 0.790535
5.17858 0.792635
5.18092 0.782598
5.18327 0.774388
5.18561 0.769146
5.18796 0.77017
5.19031 0.777727
5.19265 0.786888
5.195 0.76308
5.19734 0.758825
5.19969 0.764872
5.20203 0.773284
5.20438 0.776093
5.20672 0.76319
5.20907 0.762447
5.21141 0.767002
5.21376 0.764052
5.2161 0.755632
5.21845 0.757973
5.2208 0.769185
5.22314 0.751786
5.22549 0.741693
5.22783 0.743438
5.23018 0.748561
5.23252 0.742074
5.23487 0.74082
5.23721 0.740394
5.23956 0.74479
5.2419 0.751126
5.24425 0.753096
5.24659 0.764073
5.24894 0.757444
5.25129 0.746763
5.25363 0.743757
5.25598 0.749723
5.25832 0.746992
5.26067 0.737975
5.26301 0.740751
5.26536 0.74427
5.2677 0.743816
5.27005 0.740812
5.27239 0.744547
5.27474 0.751676
5.27708 0.753781
5.27943 0.750626
5.28177 0.745567
5.28412 0.744705
5.28647 0.753054
5.28881 0.753492
5.29116 0.748333
5.2935 0.742745
5.29585 0.740426
5.29819 0.735142
5.30054 0.741546
5.30288 0.74278
5.30523 0.740695
5.30757 0.739581
5.30992 0.743152
5.31226 0.743108
5.31461 0.734911
5.31696 0.728309
5.3193 0.72762
5.32165 0.733917
5.32399 0.745013
5.32634 0.735648
5.32868 0.731157
5.33103 0.737372
5.33337 0.748079
5.33572 0.750225
5.33806 0.741637
5.34041 0.735667
5.34275 0.737136
5.3451 0.73779
5.34745 0.734306
5.34979 0.736447
5.35214 0.73628
5.35448 0.734512
5.35683 0.738594
5.35917 0.741885
5.36152 0.735156
5.36386 0.730031
5.36621 0.735591
5.36855 0.740137
5.3709 0.740141
5.37324 0.73798
5.37559 0.740584
5.37794 0.737665
5.38028 0.738242
5.38263 0.749818
5.38497 0.759803
5.38732 0.755142
5.38966 0.74022
5.39201 0.751804
5.39435 0.764228
5.3967 0.762051
5.39904 0.749874
5.40139 0.746054
5.40373 0.756769
5.40608 0.769628
5.40842 0.781209
5.41077 0.787187
5.41312 0.786754
5.41546 0.785161
5.41781 0.793585
5.42015 0.806872
5.4225 0.811774
5.42484 0.811437
5.42719 0.815429
5.42953 0.824809
5.43188 0.819009
5.43422 0.824331
5.43657 0.834668
5.43891 0.841123
5.44126 0.838484
5.44361 0.850688
5.44595 0.848241
5.4483 0.857535
5.45064 0.869159
5.45299 0.873447
5.45533 0.885127
5.45768 0.88669
5.46002 0.888757
5.46237 0.900931
5.46471 0.914334
5.46706 0.916336
5.4694 0.941549
5.47175 0.928875
5.4741 0.920401
5.47644 0.93137
5.47879 0.95504
5.48113 0.963409
5.48348 0.973085
5.48582 0.986359
5.48817 0.999504
5.49051 1.00117
5.49286 0.987519
5.4952 0.983631
5.49755 0.967305
5.49989 0.98115
5.50224 0.993952
5.50459 0.99437
5.50693 0.990538
5.50928 0.978279
5.51162 0.96972
5.51397 0.970819
5.51631 0.960581
5.51866 0.936547
5.521 0.932895
5.52335 0.921576
5.52569 0.922838
5.52804 0.916883
5.53038 0.908688
5.53273 0.906013
5.53507 0.885518
5.53742 0.87629
5.53977 0.866699
5.54211 0.865694
5.54446 0.863193
5.5468 0.838637
5.54915 0.841958
5.55149 0.834188
5.55384 0.823448
5.55618 0.808344
5.55853 0.79282
5.56087 0.79292
5.56322 0.791339
5.56556 0.785054
5.56791 0.784472
5.57026 0.782504
5.5726 0.772035
5.57495 0.779352
5.57729 0.773435
5.57964 0.770336
5.58198 0.768123
5.58433 0.76402
5.58667 0.756732
5.58902 0.749549
5.59136 0.759093
5.59371 0.761663
5.59605 0.757013
5.5984 0.752237
5.60075 0.75597
5.60309 0.753002
5.60544 0.7608
5.60778 0.755534
5.61013 0.748874
5.61247 0.758859
5.61482 0.757983
5.61716 0.749195
5.61951 0.750557
5.62185 0.751738
5.6242 0.752023
5.62654 0.760534
5.62889 0.768172
5.63124 0.781855
5.63358 0.791885
5.63593 0.793336
5.63827 0.787862
5.64062 0.785877
5.64296 0.794925
5.64531 0.799887
5.64765 0.810853
5.65 0.818165
5.65234 0.81068
5.65469 0.804275
5.65703 0.811254
5.65938 0.821058
5.66172 0.824445
5.66407 0.824889
5.66642 0.83245
5.66876 0.822262
5.67111 0.821274
5.67345 0.819704
5.6758 0.821312
5.67814 0.82481
5.68049 0.817922
5.68283 0.81198
5.68518 0.817347
5.68752 0.820036
5.68987 0.818036
5.69221 0.813908
5.69456 0.807872
5.69691 0.805785
5.69925 0.805873
5.7016 0.803917
5.70394 0.799772
5.70629 0.796315
5.70863 0.794909
5.71098 0.782589
5.71332 0.780221
5.71567 0.776575
5.71801 0.769175
5.72036 0.771993
5.7227 0.771024
5.72505 0.76112
5.7274 0.75335
5.72974 0.750014
5.73209 0.75044
5.73443 0.754232
5.73678 0.761368
5.73912 0.770829
5.74147 0.769763
5.74381 0.760246
5.74616 0.7521
5.7485 0.748099
5.75085 0.744156
5.75319 0.748006
5.75554 0.748626
5.75789 0.74432
5.76023 0.744797
5.76258 0.757748
5.76492 0.758774
5.76727 0.748802
5.76961 0.740924
5.77196 0.744679
5.7743 0.757513
5.77665 0.756308
5.77899 0.7557
5.78134 0.748102
5.78368 0.740349
5.78603 0.741028
5.78837 0.745356
5.79072 0.754891
5.79307 0.751173
5.79541 0.745083
5.79776 0.743079
5.8001 0.745822
5.80245 0.749836
5.80479 0.740766
5.80714 0.732716
5.80948 0.734758
5.81183 0.746591
5.81417 0.757877
5.81652 0.758364
5.81886 0.754041
5.82121 0.747449
5.82356 0.747272
5.8259 0.753199
5.82825 0.745691
5.83059 0.748642
5.83294 0.748165
5.83528 0.749433
5.83763 0.753804
5.83997 0.757955
5.84232 0.750307
5.84466 0.750976
5.84701 0.758368
5.84935 0.768278
5.8517 0.769759
5.85405 0.753976
5.85639 0.749544
5.85874 0.757619
5.86108 0.765991
5.86343 0.76905
5.86577 0.769251
5.86812 0.776146
5.87046 0.784108
5.87281 0.793025
5.87515 0.789035
5.8775 0.78834
5.87984 0.801526
5.88219 0.812154
5.88454 0.804012
5.88688 0.800542
5.88923 0.810878
5.89157 0.822547
5.89392 0.822016
5.89626 0.823476
5.89861 0.828773
5.90095 0.825947
5.9033 0.828808
5.90564 0.836966
5.90799 0.840497
5.91033 0.840919
5.91268 0.843137
5.91502 0.849148
5.91737 0.849108
5.91972 0.842138
5.92206 0.839812
5.92441 0.864075
5.92675 0.868084
5.9291 0.863765
5.93144 0.862148
5.93379 0.867522
5.93613 0.873152
5.93848 0.866471
5.94082 0.876694
5.94317 0.874178
5.94551 0.864831
5.94786 0.864569
5.95021 0.877396
5.95255 0.867253
5.9549 0.874127
5.95724 0.877144
5.95959 0.878332
5.96193 0.889001
5.96428 0.89759
5.96662 0.899401
5.96897 0.910143
5.97131 0.911948
5.97366 0.905039
5.976 0.904865
5.97835 0.90469
5.9807 0.923783
5.98304 0.925405
5.98539 0.920978
5.98773 0.922091
5.99008 0.929339
5.99242 0.94632
5.99477 0.937411
5.99711 0.944007
5.99946 0.95911
6.0018 0.972434
6.00415 0.991801
6.00649 0.981544
6.00884 0.972749
6.01119 0.972577
6.01353 0.984011
6.01588 1.00143
6.01822 1.00344
6.02057 0.982355
6.02291 0.971084
6.02526 0.974671
6.0276 0.982687
6.02995 0.981721
6.03229 0.979682
6.03464 0.997452
6.03698 1.00857
6.03933 1.00972
6.04167 1.01011
6.04402 1.02015
6.04637 1.0074
6.04871 1.01407
6.05106 1.01437
6.0534 1.01355
6.05575 1.01782
6.05809 1.02771
6.06044 1.0352
6.06278 1.01653
6.06513 1.01398
6.06747 1.02258
6.06982 1.02704
6.07216 1.01707
6.07451 1.01704
6.07686 1.01052
6.0792 1.00847
6.08155 1.0042
6.08389 0.998332
6.08624 1.0183
6.08858 1.02826
6.09093 1.00879
6.09327 0.994344
6.09562 0.989182
6.09796 0.986659
6.10031 0.995116
6.10265 0.981901
6.105 0.972575
6.10735 0.971648
6.10969 0.969891
6.11204 0.9554
6.11438 0.937764
6.11673 0.932521
6.11907 0.93742
6.12142 0.946767
6.12376 0.951172
6.12611 0.941522
6.12845 0.921195
6.1308 0.928066
6.13314 0.929047
6.13549 0.937442
6.13784 0.954522
6.14018 0.961503
6.14253 0.94415
6.14487 0.927905
6.14722 0.924267
6.14956 0.93324
6.15191 0.945695
6.15425 0.946396
6.1566 0.947682
6.15894 0.942052
6.16129 0.941317
6.16363 0.942155
6.16598 0.943404
6.16832 0.954779
6.17067 0.945739
6.17302 0.958666
6.17536 0.971439
6.17771 0.973964
6.18005 0.971709
6.1824 0.991846
6.18474 0.989794
6.18709 0.993837
6.18943 0.999323
6.19178 1.00492
6.19412 1.00834
6.19647 0.998875
6.19881 1.03315
6.20116 1.0531
6.20351 1.05761
6.20585 1.05834
6.2082 1.06657
6.21054 1.06913
6.21289 1.08481
6.21523 1.09931
6.21758 1.11806
6.21992 1.12787
6.22227 1.11399
6.22461 1.12839
6.22696 1.1374
6.2293 1.14896
6.23165 1.15432
6.234 1.15929
6.23634 1.17913
6.23869 1.19183
6.24103 1.189
6.24338 1.1966
6.24572 1.212
6.24807 1.22415
6.25041 1.22261
6.25276 1.23087
6.2551 1.23721
6.25745 1.25766
6.25979 1.27129
6.26214 1.26583
6.26449 1.2522
6.26683 1.24276
6.26918 1.25097
6.27152 1.26107
6.27387 1.27366
6.27621 1.28873
6.27856 1.29898
6.2809 1.30177
6.28325 1.31545
6.28559 1.32385
6.28794 1.31814
6.29028 1.30519
6.29263 1.31287
6.29498 1.31512
6.29732 1.3097
6.29967 1.30632
6.30201 1.3031
6.30436 1.30098
6.3067 1.31571
6.30905 1.30763
6.31139 1.29347
6.31374 1.29594
6.31608 1.29435
6.31843 1.27084
6.32077 1.26301
6.32312 1.24134
6.32546 1.20812
6.32781 1.1893
6.33016 1.18222
6.3325 1.17317
6.33485 1.16303
6.33719 1.14718
6.33954 1.12743
6.34188 1.10792
6.34423 1.09681
6.34657 1.09596
6.34892 1.08072
6.35126 1.09861
6.35361 1.08995
6.35595 1.06173
6.3583 1.03547
6.36065 1.02795
6.36299 1.0158
6.36534 1.01085
6.36768 1.00821
6.37003 1.00512
6.37237 0.999242
6.37472 0.989683
6.37706 0.979758
6.37941 0.99395
6.38175 0.999513
6.3841 0.991878
6.38644 0.979438
6.38879 0.977267
6.39114 0.99559
6.39348 0.982355
6.39583 0.979756
6.39817 0.976094
6.40052 0.973442
6.40286 0.985306
6.40521 0.996375
6.40755 0.994348
6.4099 0.982512
6.41224 0.980753
6.41459 0.99749
6.41693 1.02186
6.41928 1.00729
6.42163 1.00005
6.42397 0.99931
6.42632 1.0025
6.42866 1.00349
6.43101 0.997835
6.43335 1.00952
6.4357 1.00419
6.43804 1.01575
6.44039 1.01596
6.44273 1.00021
6.44508 0.995336
6.44742 1.00707
6.44977 1.00362
6.45211 0.993605
6.45446 0.992046
6.45681 0.995273
6.45915 0.984679
6.4615 0.986518
6.46384 0.993196
6.46619 0.995864
6.46853 0.991248
6.47088 0.977742
6.47322 0.957669
6.47557 0.958385
6.47791 0.972271
6.48026 0.971289
6.4826 0.965762
6.48495 0.959642
6.4873 0.94433
6.48964 0.934492
6.49199 0.942462
6.49433 0.946152
6.49668 0.946777
6.49902 0.946306
6.50137 0.942054
6.50371 0.926739
6.50606 0.924651
6.5084 0.924017
6.51075 0.920575
6.51309 0.91613
6.51544 0.916294
6.51779 0.915428
6.52013 0.902626
6.52248 0.90529
6.52482 0.915442
6.52717 0.923655
6.52951 0.929135
6.53186 0.945917
6.5342 0.936085
6.53655 0.927073
6.53889 0.925353
6.54124 0.929255
6.54358 0.932035
6.54593 0.923659
6.54828 0.921786
6.55062 0.919953
6.55297 0.916863
6.55531 0.916105
6.55766 0.923495
6.56 0.932093
6.56235 0.939919
6.56469 0.944983
6.56704 0.944266
6.56938 0.937761
6.57173 0.930188
6.57407 0.936713
6.57642 0.939055
6.57876 0.933399
6.58111 0.921173
6.58346 0.913397
6.5858 0.924425
6.58815 0.941505
6.59049 0.945008
6.59284 0.942186
6.59518 0.936371
6.59753 0.927905
6.59987 0.916858
6.60222 0.916492
6.60456 0.920989
6.60691 0.916641
6.60925 0.9197
6.6116 0.933115
6.61395 0.942442
6.61629 0.924668
6.61864 0.912541
6.62098 0.911033
6.62333 0.903546
6.62567 0.887119
6.62802 0.873319
6.63036 0.876415
6.63271 0.875007
6.63505 0.87707
6.6374 0.887211
6.63974 0.898237
6.64209 0.899993
6.64444 0.905014
6.64678 0.904103
6.64913 0.908985
6.65147 0.906844
6.65382 0.902845
6.65616 0.907788
6.65851 0.901968
6.66085 0.885685
6.6632 0.883946
6.66554 0.891849
6.66789 0.899758
6.67023 0.901628
6.67258 0.906693
6.67493 0.914316
6.67727 0.917483
6.67962 0.914068
6.68196 0.906814
6.68431 0.901717
6.68665 0.906073
6.689 0.904959
6.69134 0.925144
6.69369 0.950807
6.69603 0.972082
6.69838 0.980095
6.70072 0.959648
6.70307 0.948515
6.70541 0.942987
6.70776 0.941123
6.71011 0.946305
6.71245 0.958914
6.7148 0.969066
6.71714 0.979141
6.71949 0.993844
6.72183 0.99486
6.72418 0.985202
6.72652 0.978
6.72887 0.986534
6.73121 0.984147
6.73356 0.970103
6.7359 0.972529
6.73825 0.977475
6.7406 0.97087
6.74294 0.96013
6.74529 0.961717
6.74763 0.981924
6.74998 0.988356
6.75232 0.983618
6.75467 0.975828
6.75701 0.968224
6.75936 0.968232
6.7617 0.976463
6.76405 0.964483
6.76639 0.950721
6.76874 0.945363
6.77109 0.940489
6.77343 0.944611
6.77578 0.941874
6.77812 0.944554
6.78047 0.937904
6.78281 0.923913
6.78516 0.919925
6.7875 0.923576
6.78985 0.937278
6.79219 0.942716
6.79454 0.945288
6.79688 0.944383
6.79923 0.937033
6.80158 0.936729
6.80392 0.937055
6.80627 0.933473
6.80861 0.932381
6.81096 0.938772
6.8133 0.948815
6.81565 0.938326
6.81799 0.951347
6.82034 0.949629
6.82268 0.946904
6.82503 0.945158
6.82737 0.943623
6.82972 0.951424
6.83206 0.951507
6.83441 0.950272
6.83676 0.943539
6.8391 0.934628
6.84145 0.933567
6.84379 0.953831
6.84614 0.959974
6.84848 0.956289
6.85083 0.948275
6.85317 0.944538
6.85552 0.950241
6.85786 0.96153
6.86021 0.9451
6.86255 0.944077
6.8649 0.93928
6.86725 0.933926
6.86959 0.933209
6.87194 0.936831
6.87428 0.933502
6.87663 0.923359
6.87897 0.924299
6.88132 0.927154
6.88366 0.930717
6.88601 0.940186
6.88835 0.937136
6.8907 0.941898
6.89304 0.944427
6.89539 0.937922
6.89774 0.92311
6.90008 0.909714
6.90243 0.919354
6.90477 0.92844
6.90712 0.937444
6.90946 0.939556
6.91181 0.941462
6.91415 0.946584
6.9165 0.933474
6.91884 0.916117
6.92119 0.932637
6.92353 0.939953
6.92588 0.934592
6.92823 0.928066
6.93057 0.92642
6.93292 0.929243
6.93526 0.930314
6.93761 0.930613
6.93995 0.933038
6.9423 0.932846
6.94464 0.919238
6.94699 0.923059
6.94933 0.931273
6.95168 0.924422
6.95402 0.928942
6.95637 0.950655
6.95871 0.965088
6.96106 0.946319
6.96341 0.936081
6.96575 0.939602
6.9681 0.945593
6.97044 0.938961
6.97279 0.914265
6.97513 0.900282
6.97748 0.911171
6.97982 0.916631
6.98217 0.928389
6.98451 0.938604
6.98686 0.938037
6.9892 0.941966
6.99155 0.957328
6.9939 0.961497
6.99624 0.960451
6.99859 0.951723
7.00093 0.938036
7.00328 0.935245
7.00562 0.95239
7.00797 0.961153
7.01031 0.963331
7.01266 0.971688
7.015 0.983707
7.01735 0.98014
7.01969 0.975552
7.02204 0.99577
7.02439 1.00814
7.02673 1.01681
7.02908 1.02642
7.03142 1.03542
7.03377 1.03615
7.03611 1.04162
7.03846 1.04868
7.0408 1.05484
7.04315 1.066
7.04549 1.08693
7.04784 1.10656
7.05018 1.10247
7.05253 1.09814
7.05488 1.09592
7.05722 1.0871
7.05957 1.06968
7.06191 1.0607
7.06426 1.0735
7.0666 1.07982
7.06895 1.08585
7.07129 1.08727
7.07364 1.08708
7.07598 1.09632
7.07833 1.09834
7.08067 1.1054
7.08302 1.10661
7.08536 1.09964
7.08771 1.08728
7.09006 1.07281
7.0924 1.04916
7.09475 1.03569
7.09709 1.04169
7.09944 1.04729
7.10178 1.04216
7.10413 1.02791
7.10647 1.01637
7.10882 1.01251
7.11116 1.00957
7.11351 1.01714
7.11585 1.01723
7.1182 1.00667
7.12055 1.01682
7.12289 1.02867
7.12524 1.01502
7.12758 1.01714
7.12993 1.02081
7.13227 1.01674
7.13462 1.01228
7.13696 1.00437
7.13931 1.00289
7.14165 1.00534
7.144 1.00177
7.14634 0.992855
7.14869 0.988488
7.15104 1.00094
7.15338 1.00613
7.15573 1.0096
7.15807 1.00578
7.16042 1.002
7.16276 1.00699
7.16511 1.01919
7.16745 1.00663
7.1698 0.99378
7.17214 0.986316
7.17449 0.98281
7.17683 0.988339
7.17918 1.00984
7.18153 1.00448
7.18387 0.992971
7.18622 0.985579
7.18856 0.985317
7.19091 0.991801
7.19325 0.996776
7.1956 0.973149
7.19794 0.970489
7.20029 0.968483
7.20263 0.969583
7.20498 0.970551
7.20732 0.966572
7.20967 0.956387
7.21201 0.946084
7.21436 0.94025
7.21671 0.940635
7.21905 0.951683
7.2214 0.964915
7.22374 0.960957
7.22609 0.95007
7.22843 0.945987
7.23078 0.953642
7.23312 0.952784
7.23547 0.946515
7.23781 0.94872
7.24016 0.942015
7.2425 0.943171
7.24485 0.949331
7.2472 0.943094
7.24954 0.935776
7.25189 0.941148
7.25423 0.951451
7.25658 0.949959
7.25892 0.940124
7.26127 0.938715
7.26361 0.941715
7.26596 0.945671
7.2683 0.951878
7.27065 0.949611
7.27299 0.946221
7.27534 0.941925
7.27769 0.941044
7.28003 0.945142
7.28238 0.951011
7.28472 0.949392
7.28707 0.943603
7.28941 0.931001
7.29176 0.926193
7.2941 0.925839
7.29645 0.92842
7.29879 0.944521
7.30114 0.959504
7.30348 0.960953
7.30583 0.947382
7.30818 0.943056
7.31052 0.945051
7.31287 0.932625
7.31521 0.938317
7.31756 0.951968
7.3199 0.958093
7.32225 0.96712
7.32459 0.974516
7.32694 0.976309
7.32928 0.988315
7.33163 0.996197
7.33397 0.98537
7.33632 0.968629
7.33866 0.962811
7.34101 0.969127
7.34336 0.97202
7.3457 0.97936
7.34805 0.972923
7.35039 0.956822
7.35274 0.94425
7.35508 0.947153
7.35743 0.965394
7.35977 0.972984
7.36212 0.963788
7.36446 0.949708
7.36681 0.956028
7.36915 0.977034
7.3715 0.992788
7.37385 0.986436
7.37619 0.973223
7.37854 0.979788
7.38088 0.977043
7.38323 0.974774
7.38557 0.981598
7.38792 0.992807
7.39026 0.984098
7.39261 0.979879
7.39495 0.991582
7.3973 1.00062
7.39964 1.0075
7.40199 1.01436
7.40434 1.00922
7.40668 1.01214
7.40903 1.00104
7.41137 1.00729
7.41372 1.02282
7.41606 1.02993
7.41841 1.02083
7.42075 1.02813
7.4231 1.03816
7.42544 1.03714
7.42779 1.03641
7.43013 1.0327
7.43248 1.02655
7.43483 1.0438
7.43717 1.05704
7.43952 1.06795
7.44186 1.05881
7.44421 1.04776
7.44655 1.04837
7.4489 1.05286
7.45124 1.03323
7.45359 1.02828
7.45593 1.04597
7.45828 1.04689
7.46062 1.03223
7.46297 1.03034
7.46532 1.06078
7.46766 1.06029
7.47001 1.06184
7.47235 1.06936
7.4747 1.0739
7.47704 1.06842
7.47939 1.05532
7.48173 1.04721
7.48408 1.04213
7.48642 1.04328
7.48877 1.04349
7.49111 1.04729
7.49346 1.0592
7.4958 1.0641
7.49815 1.05278
7.5005 1.06093
7.50284 1.05946
7.50519 1.05441
7.50753 1.05036
7.50988 1.03884
7.51222 1.03099
7.51457 1.03646
7.51691 1.03398
7.51926 1.03813
7.5216 1.04519
7.52395 1.04332
7.52629 1.03679
7.52864 1.04611
7.53099 1.0346
7.53333 1.02512
7.53568 1.03604
7.53802 1.05464
7.54037 1.0442
7.54271 1.02306
7.54506 1.03717
7.5474 1.0508
7.54975 1.05763
7.55209 1.05954
7.55444 1.05854
7.55678 1.0502
7.55913 1.05805
7.56148 1.05659
7.56382 1.05518
7.56617 1.06145
7.56851 1.07037
7.57086 1.07181
7.5732 1.09485
7.57555 1.10011
7.57789 1.09961
7.58024 1.07471
7.58258 1.0617
7.58493 1.08656
7.58727 1.09712
7.58962 1.12343
7.59197 1.11537
7.59431 1.11072
7.59666 1.12311
7.599 1.13314
7.60135 1.11328
7.60369 1.10526
7.60604 1.12025
7.60838 1.12407
7.61073 1.1307
7.61307 1.13511
7.61542 1.13058
7.61776 1.12421
7.62011 1.10871
7.62245 1.13598
7.6248 1.14148
7.62715 1.12685
7.62949 1.11463
7.63184 1.12191
7.63418 1.13022
7.63653 1.12727
7.63887 1.12458
7.64122 1.13128
7.64356 1.13731
7.64591 1.13524
7.64825 1.13238
7.6506 1.13987
7.65294 1.12911
7.65529 1.11911
7.65764 1.12199
7.65998 1.137
7.66233 1.15146
7.66467 1.14687
7.66702 1.14155
7.66936 1.1406
7.67171 1.15175
7.67405 1.15477
7.6764 1.15552
7.67874 1.1826
7.68109 1.20173
7.68343 1.23389
7.68578 1.26866
7.68813 1.28092
7.69047 1.27861
7.69282 1.27772
7.69516 1.27662
7.69751 1.27669
7.69985 1.29122
7.7022 1.28525
7.70454 1.29697
7.70689 1.32154
7.70923 1.32694
7.71158 1.34031
7.71392 1.37504
7.71627 1.39442
7.71862 1.40418
7.72096 1.40984
7.72331 1.41412
7.72565 1.41859
7.728 1.43787
7.73034 1.45014
7.73269 1.47019
7.73503 1.4885
7.73738 1.50393
7.73972 1.5179
7.74207 1.52487
7.74441 1.53306
7.74676 1.55644
7.7491 1.5866
7.75145 1.60506
7.7538 1.6162
7.75614 1.63866
7.75849 1.66371
7.76083 1.66876
7.76318 1.67177
7.76552 1.67542
7.76787 1.67527
7.77021 1.67655
7.77256 1.69103
7.7749 1.67031
7.77725 1.67121
7.77959 1.66442
7.78194 1.65112
7.78429 1.63846
7.78663 1.62372
7.78898 1.58677
7.79132 1.58497
7.79367 1.54779
7.79601 1.53094
7.79836 1.52691
7.8007 1.51217
7.80305 1.47968
7.80539 1.47459
7.80774 1.4502
7.81008 1.44423
7.81243 1.44287
7.81478 1.43873
7.81712 1.43091
7.81947 1.42258
7.82181 1.41471
7.82416 1.39747
7.8265 1.39521
7.82885 1.38415
7.83119 1.37252
7.83354 1.37153
7.83588 1.36455
7.83823 1.36998
7.84057 1.36375
7.84292 1.35066
7.84527 1.34198
7.84761 1.33941
7.84996 1.33779
7.8523 1.33617
7.85465 1.29878
7.85699 1.28822
7.85934 1.2873
7.86168 1.27909
7.86403 1.26897
7.86637 1.27557
7.86872 1.27836
7.87106 1.27139
7.87341 1.23222
7.87575 1.2033
7.8781 1.18219
7.88045 1.16071
7.88279 1.15032
7.88514 1.1379
7.88748 1.13178
7.88983 1.12055
7.89217 1.11372
7.89452 1.11191
7.89686 1.10839
7.89921 1.09762
7.90155 1.0941
7.9039 1.07473
7.90624 1.05513
7.90859 1.04812
7.91094 1.05274
7.91328 1.05466
7.91563 1.03473
7.91797 1.02343
7.92032 1.02285
7.92266 1.01988
7.92501 1.01488
7.92735 1.00845
7.9297 0.999589
7.93204 0.996636
7.93439 0.9955
7.93673 0.992271
7.93908 0.988337
7.94143 0.981133
7.94377 0.969483
7.94612 0.960185
7.94846 0.983611
7.95081 0.97992
7.95315 0.9751
7.9555 0.973677
7.95784 0.967685
7.96019 0.951972
7.96253 0.936107
7.96488 0.931193
7.96722 0.946101
7.96957 0.965449
7.97192 0.962844
7.97426 0.950409
7.97661 0.945022
7.97895 0.918264
7.9813 0.921711
7.98364 0.916447
7.98599 0.914874
7.98833 0.923318
7.99068 0.930307
7.99302 0.919229
7.99537 0.897224
7.99771 0.883126
8.00006 0.894692
8.0024 0.903312
8.00475 0.905225
8.0071 0.908744
8.00944 0.917396
8.01179 0.90339
8.01413 0.904656
8.01648 0.936681
8.01882 0.942565
8.02117 0.92495
8.02351 0.902402
8.02586 0.884701
8.0282 0.894206
8.03055 0.900311
8.03289 0.901526
8.03524 0.901181
8.03759 0.898972
8.03993 0.892856
8.04228 0.882693
8.04462 0.878589
8.04697 0.883209
8.04931 0.890269
8.05166 0.900833
8.054 0.911022
8.05635 0.918637
8.05869 0.927004
8.06104 0.915845
8.06338 0.88442
8.06573 0.866543
8.06808 0.869094
8.07042 0.880907
8.07277 0.890817
8.07511 0.904746
8.07746 0.913969
8.0798 0.88899
8.08215 0.88651
8.08449 0.89791
8.08684 0.903392
8.08918 0.898539
8.09153 0.907656
8.09387 0.896101
8.09622 0.888905
8.09857 0.890586
8.10091 0.888521
8.10326 0.877677
8.1056 0.864737
8.10795 0.861095
8.11029 0.887653
8.11264 0.907161
8.11498 0.928752
8.11733 0.933043
8.11967 0.92577
8.12202 0.93039
8.12436 0.935851
8.12671 0.930266
8.12905 0.923607
8.1314 0.916925
8.13375 0.935498
8.13609 0.959578
8.13844 0.948783
8.14078 0.959753
8.14313 0.973562
8.14547 0.989279
8.14782 0.993523
8.15016 1.00458
8.15251 1.01461
8.15485 0.992739
8.1572 0.963365
8.15954 0.954038
8.16189 0.969683
8.16424 0.985581
8.16658 0.997479
8.16893 1.01171
8.17127 1.02922
8.17362 1.01975
8.17596 1.02118
8.17831 1.02912
8.18065 1.03201
8.183 1.02316
8.18534 1.01005
8.18769 1.00805
8.19003 1.009
8.19238 0.989982
8.19473 0.992817
8.19707 1.0034
8.19942 0.999456
8.20176 0.980874
8.20411 0.972503
8.20645 0.98195
8.2088 0.990715
8.21114 0.991939
8.21349 1.00524
8.21583 1.01516
8.21818 1.01303
8.22052 1.01111
8.22287 0.996129
8.22522 0.992356
8.22756 1.01056
8.22991 0.99865
8.23225 0.983364
8.2346 0.988574
8.23694 0.996492
8.23929 1.00808
8.24163 1.01263
8.24398 0.995098
8.24632 1.00688
8.24867 1.01865
8.25101 1.0054
8.25336 0.989174
8.2557 0.988958
8.25805 0.981214
8.2604 0.996563
8.26274 0.993822
8.26509 0.98005
8.26743 0.971087
8.26978 0.964941
8.27212 0.94693
8.27447 0.933913
8.27681 0.946998
8.27916 0.954697
8.2815 0.958546
8.28385 0.964902
8.28619 0.96933
8.28854 0.964962
8.29089 0.970607
8.29323 0.968939
8.29558 0.954978
8.29792 0.943718
8.30027 0.949695
8.30261 0.968904
8.30496 0.963774
8.3073 0.943472
8.30965 0.935925
8.31199 0.937461
8.31434 0.949142
8.31668 0.960592
8.31903 0.954603
8.32138 0.933708
8.32372 0.964456
8.32607 0.966932
8.32841 0.953017
8.33076 0.941277
8.3331 0.938496
8.33545 0.938532
8.33779 0.935977
8.34014 0.939007
8.34248 0.944981
8.34483 0.9463
8.34717 0.942451
8.34952 0.936468
8.35187 0.934721
8.35421 0.946753
8.35656 0.9495
8.3589 0.958799
8.36125 0.951532
8.36359 0.943991
8.36594 0.938312
8.36828 0.929485
8.37063 0.933242
8.37297 0.933423
8.37532 0.914125
8.37766 0.920885
8.38001 0.921369
8.38235 0.920412
8.3847 0.935876
8.38705 0.944498
8.38939 0.929208
8.39174 0.914172
8.39408 0.931699
8.39643 0.941413
8.39877 0.942697
8.40112 0.946828
8.40346 0.936573
8.40581 0.902308
8.40815 0.910797
8.4105 0.937097
8.41284 0.946218
8.41519 0.944828
8.41754 0.943105
8.41988 0.932468
8.42223 0.943516
8.42457 0.950619
8.42692 0.932072
8.42926 0.923635
8.43161 0.922424
8.43395 0.91892
8.4363 0.919462
8.43864 0.937317
8.44099 0.921241
8.44333 0.924262
8.44568 0.920621
8.44803 0.92209
8.45037 0.925641
8.45272 0.915216
8.45506 0.918711
8.45741 0.917486
8.45975 0.926684
8.4621 0.928272
8.46444 0.923438
8.46679 0.911601
8.46913 0.894063
8.47148 0.889273
8.47382 0.917062
8.47617 0.911608
8.47852 0.919718
8.48086 0.926693
8.48321 0.922476
8.48555 0.913471
8.4879 0.912728
8.49024 0.910548
8.49259 0.901622
8.49493 0.895173
8.49728 0.885489
8.49962 0.876797
8.50197 0.886945
8.50431 0.929934
8.50666 0.946399
8.509 0.919553
8.51135 0.907802
8.5137 0.905312
8.51604 0.901516
8.51839 0.892634
8.52073 0.881897
8.52308 0.867558
8.52542 0.895674
8.52777 0.922054
8.53011 0.919441
8.53246 0.911085
8.5348 0.911473
8.53715 0.910531
8.53949 0.896299
8.54184 0.907042
8.54419 0.914192
8.54653 0.91846
8.54888 0.919315
8.55122 0.918018
8.55357 0.912902
8.55591 0.897368
8.55826 0.891318
8.5606 0.906337
8.56295 0.900182
8.56529 0.90597
8.56764 0.92176
8.56998 0.933108
8.57233 0.936107
8.57468 0.899887
8.57702 0.898355
8.57937 0.88473
8.58171 0.885764
8.58406 0.896308
8.5864 0.905425
8.58875 0.912011
8.59109 0.918548
8.59344 0.912612
8.59578 0.908865
8.59813 0.919604
8.60047 0.924249
8.60282 0.922507
8.60517 0.924388
8.60751 0.917145
8.60986 0.926164
8.6122 0.924367
8.61455 0.925087
8.61689 0.92855
8.61924 0.935735
8.62158 0.940519
8.62393 0.93056
8.62627 0.925867
8.62862 0.904063
8.63096 0.916249
8.63331 0.93438
8.63565 0.943575
8.638 0.941392
8.64035 0.932194
8.64269 0.923613
8.64504 0.937106
8.64738 0.944744
8.64973 0.950169
8.65207 0.951873
8.65442 0.94825
8.65676 0.940276
8.65911 0.932171
8.66145 0.928902
8.6638 0.903146
8.66614 0.899439
8.66849 0.914307
8.67084 0.935743
8.67318 0.946355
8.67553 0.933012
8.67787 0.923494
8.68022 0.913317
8.68256 0.915115
8.68491 0.924236
8.68725 0.93733
8.6896 0.94525
8.69194 0.937603
8.69429 0.918108
8.69663 0.928972
8.69898 0.936936
8.70133 0.936474
8.70367 0.926102
8.70602 0.92149
8.70836 0.932185
8.71071 0.941467
8.71305 0.939642
8.7154 0.939072
8.71774 0.941069
8.72009 0.944249
8.72243 0.951102
8.72478 0.952914
8.72712 0.938248
8.72947 0.929603
8.73182 0.911615
8.73416 0.914834
8.73651 0.917595
8.73885 0.927569
8.7412 0.943949
8.74354 0.953086
8.74589 0.943866
8.74823 0.941351
8.75058 0.950371
8.75292 0.939949
8.75527 0.928178
8.75761 0.932908
8.75996 0.950097
8.76231 0.958481
8.76465 0.957929
8.767 0.946673
8.76934 0.939261
8.77169 0.936734
8.77403 0.930851
8.77638 0.920886
8.77872 0.916305
8.78107 0.928085
8.78341 0.943932
8.78576 0.918704
8.7881 0.925703
8.79045 0.933033
8.79279 0.939447
8.79514 0.949132
8.79749 0.952171
8.79983 0.955223
8.80218 0.961321
8.80452 0.940619
8.80687 0.940659
8.80921 0.942636
8.81156 0.941013
8.8139 0.938021
8.81625 0.910551
8.81859 0.895702
8.82094 0.893507
8.82328 0.905116
8.82563 0.936612
8.82798 0.958937
8.83032 0.957998
8.83267 0.949225
8.83501 0.922532
8.83736 0.937563
8.8397 0.952615
8.84205 0.955565
8.84439 0.953687
8.84674 0.954995
8.84908 0.957305
8.85143 0.950752
8.85377 0.960021
8.85612 0.945569
8.85847 0.956181
8.86081 0.945714
8.86316 0.933226
8.8655 0.936895
8.86785 0.944528
8.87019 0.953241
8.87254 0.939408
8.87488 0.936061
8.87723 0.945358
8.87957 0.967028
8.88192 0.974818
8.88426 0.957844
8.88661 0.950721
8.88896 0.974639
8.8913 0.970941
8.89365 0.967129
8.89599 0.973344
8.89834 0.97547
8.90068 0.973022
8.90303 0.98086
8.90537 1.00062
8.90772 0.998532
8.91006 1.00552
8.91241 1.01019
8.91475 1.01483
8.9171 1.01453
8.91944 1.00443
8.92179 0.994196
8.92414 1.02229
8.92648 1.04018
8.92883 1.03808
8.93117 1.02573
8.93352 1.02679
8.93586 1.04486
8.93821 1.05645
8.94055 1.03298
8.9429 1.01593
8.94524 1.04027
8.94759 1.05915
8.94993 1.05825
8.95228 1.0552
8.95463 1.06174
8.95697 1.06871
8.95932 1.06054
8.96166 1.05686
8.96401 1.03649
8.96635 1.0306
8.9687 1.03981
8.97104 1.0452
8.97339 1.03569
8.97573 1.02223
8.97808 1.02102
8.98042 1.02138
8.98277 1.05357
8.98512 1.06601
8.98746 1.05094
8.98981 1.03577
8.99215 1.04919
8.9945 1.08382
8.99684 1.07923
8.99919 1.07462
9.00153 1.08332
9.00388 1.09868
9.00622 1.10155
9.00857 1.09042
9.01091 1.08178
9.01326 1.08983
9.01561 1.13917
9.01795 1.13354
9.0203 1.11964
9.02264 1.11107
9.02499 1.10653
9.02733 1.10761
9.02968 1.12124
9.03202 1.14111
9.03437 1.11183
9.03671 1.09903
9.03906 1.11248
9.0414 1.12138
9.04375 1.12241
9.04609 1.12133
9.04844 1.11162
9.05079 1.09676
9.05313 1.06404
9.05548 1.04106
9.05782 1.0508
9.06017 1.04751
9.06251 1.03533
9.06486 1.04597
9.0672 1.07015
9.06955 1.05327
9.07189 1.00503
9.07424 0.999193
9.07658 1.00778
9.07893 1.00043
9.08128 0.98802
9.08362 0.98652
9.08597 0.964701
9.08831 0.95462
9.09066 0.955242
9.093 0.95955
9.09535 0.953399
9.09769 0.927721
9.10004 0.911019
9.10238 0.930381
9.10473 0.937162
9.10707 0.937109
9.10942 0.931806
9.11177 0.946437
9.11411 0.947642
9.11646 0.938189
9.1188 0.935824
9.12115 0.937794
9.12349 0.906895
9.12584 0.901107
9.12818 0.8865
9.13053 0.879832
9.13287 0.900493
9.13522 0.916749
9.13756 0.908658
9.13991 0.898518
9.14226 0.890576
9.1446 0.879744
9.14695 0.892479
9.14929 0.895753
9.15164 0.910622
9.15398 0.919497
9.15633 0.912304
9.15867 0.913416
9.16102 0.898091
9.16336 0.883306
9.16571 0.879503
9.16805 0.864405
9.1704 0.872009
9.17274 0.898095
9.17509 0.906803
9.17744 0.883301
9.17978 0.889966
9.18213 0.909893
9.18447 0.91202
9.18682 0.900369
9.18916 0.881585
9.19151 0.885713
9.19385 0.908985
9.1962 0.899995
9.19854 0.924713
9.20089 0.939365
9.20323 0.921526
9.20558 0.899123
9.20793 0.892977
9.21027 0.893894
9.21262 0.892566
9.21496 0.901869
9.21731 0.894802
9.21965 0.87167
9.222 0.879941
9.22434 0.906628
9.22669 0.91302
9.22903 0.905257
9.23138 0.905601
9.23372 0.903116
9.23607 0.890893
9.23842 0.90393
9.24076 0.901458
9.24311 0.911366
9.24545 0.90181
9.2478 0.906153
9.25014 0.939778
9.25249 0.927755
9.25483 0.951489
9.25718 0.957925
9.25952 0.938179
9.26187 0.926837
9.26421 0.912022
9.26656 0.891113
9.26891 0.883327
9.27125 0.901388
9.2736 0.887509
9.27594 0.893209
9.27829 0.892525
9.28063 0.907304
9.28298 0.906336
9.28532 0.887708
9.28767 0.877794
9.29001 0.890946
9.29236 0.900612
9.2947 0.880693
9.29705 0.853301
9.29939 0.870776
9.30174 0.884727
9.30409 0.881875
9.30643 0.880788
9.30878 0.885059
9.31112 0.878796
9.31347 0.904206
9.31581 0.907884
9.31816 0.898459
9.3205 0.89533
9.32285 0.905461
9.32519 0.914893
9.32754 0.904801
9.32988 0.892835
9.33223 0.900302
9.33458 0.904504
9.33692 0.895217
9.33927 0.881963
9.34161 0.871725
9.34396 0.869294
9.3463 0.87999
9.34865 0.904357
9.35099 0.9025
9.35334 0.915319
9.35568 0.919805
9.35803 0.901076
9.36037 0.879961
9.36272 0.87777
9.36507 0.892151
9.36741 0.906198
9.36976 0.904722
9.3721 0.886315
9.37445 0.903714
9.37679 0.911729
9.37914 0.916987
9.38148 0.920846
9.38383 0.914426
9.38617 0.922647
9.38852 0.921762
9.39086 0.889864
9.39321 0.884692
9.39556 0.895952
9.3979 0.909066
9.40025 0.930561
9.40259 0.95452
9.40494 0.934851
9.40728 0.890623
9.40963 0.909367
9.41197 0.914556
9.41432 0.912832
9.41666 0.911716
9.41901 0.921503
9.42135 0.934683
9.4237 0.928953
9.42604 0.936953
9.42839 0.927707
9.43074 0.901176
9.43308 0.897041
9.43543 0.901707
9.43777 0.905085
9.44012 0.914684
9.44246 0.936178
9.44481 0.939517
9.44715 0.939821
9.4495 0.943409
9.45184 0.930263
9.45419 0.923371
9.45653 0.927475
9.45888 0.939682
9.46123 0.955953
9.46357 0.959698
9.46592 0.908
9.46826 0.909604
9.47061 0.915221
9.47295 0.914465
9.4753 0.914773
9.47764 0.92797
9.47999 0.947746
9.48233 0.951614
9.48468 0.979157
9.48702 0.949532
9.48937 0.939987
9.49172 0.958029
9.49406 0.960938
9.49641 0.952025
9.49875 0.953955
9.5011 0.962795
9.50344 0.962012
9.50579 0.954418
9.50813 0.943693
9.51048 0.934968
9.51282 0.953296
9.51517 0.967534
9.51751 0.964656
9.51986 0.969219
9.52221 0.98407
9.52455 0.997633
9.5269 0.963544
9.52924 0.948698
9.53159 0.951995
9.53393 0.964959
9.53628 0.974806
9.53862 0.976432
9.54097 0.976781
9.54331 0.965081
9.54566 0.960275
9.548 0.971205
9.55035 0.982772
9.55269 0.990668
9.55504 0.992977
9.55739 0.983981
9.55973 0.964607
9.56208 0.961837
9.56442 0.959063
9.56677 1.00648
9.56911 1.02422
9.57146 1.02361
9.5738 1.00493
9.57615 0.98863
9.57849 0.993795
9.58084 0.992265
9.58318 0.950217
9.58553 0.975769
9.58788 0.989889
9.59022 0.997369
9.59257 1.00443
9.59491 0.995883
9.59726 0.978366
9.5996 0.989728
9.60195 1.02482
9.60429 1.00501
9.60664 0.987683
9.60898 0.979719
9.61133 0.978985
9.61367 0.998156
9.61602 1.01123
9.61837 0.986909
9.62071 0.955077
9.62306 0.927421
9.6254 0.946866
9.62775 0.97325
9.63009 0.972874
9.63244 0.976255
9.63478 0.977725
9.63713 0.968075
9.63947 0.972051
9.64182 1.00622
9.64416 1.00382
9.64651 0.990505
9.64886 0.96613
9.6512 0.962177
9.65355 0.955178
9.65589 0.949779
9.65824 0.961611
9.66058 0.96244
9.66293 0.9705
9.66527 0.969759
9.66762 0.957233
9.66996 0.95987
9.67231 0.969828
9.67465 0.973232
9.677 0.970742
9.67934 0.969942
9.68169 0.959813
9.68404 0.951225
9.68638 0.959381
9.68873 0.961065
9.69107 0.947986
9.69342 0.937752
9.69576 0.950986
9.69811 0.982113
9.70045 0.998033
9.7028 0.988308
9.70514 0.99459
9.70749 0.993746
9.70983 0.990668
9.71218 0.966295
9.71453 0.953436
9.71687 0.970657
9.71922 0.993425
9.72156 0.994394
9.72391 1.00156
9.72625 0.990489
9.7286 1.00211
9.73094 0.996756
9.73329 0.996679
9.73563 1.00141
9.73798 1.00246
9.74032 1.00751
9.74267 1.02322
9.74502 1.03322
9.74736 1.01867
9.74971 0.996672
9.75205 0.986004
9.7544 0.984823
9.75674 0.998905
9.75909 1.02392
9.76143 1.03666
9.76378 1.04502
9.76612 1.03651
9.76847 0.995676
9.77081 0.992135
9.77316 0.994381
9.77551 0.995546
9.77785 1.00413
9.7802 1.01078
9.78254 0.993986
9.78489 1.01164
9.78723 1.01457
9.78958 1.00132
9.79192 0.995068
9.79427 1.01199
9.79661 1.02715
9.79896 1.02725
9.8013 1.0308
9.80365 1.04793
9.80599 1.02756
9.80834 1.01646
9.81069 1.006
9.81303 0.979109
9.81538 0.97231
9.81772 0.967184
9.82007 0.96343
9.82241 0.985978
9.82476 0.984157
9.8271 0.984909
9.82945 1.00646
9.83179 0.991101
9.83414 0.986756
9.83648 1.01005
9.83883 1.02816
9.84118 1.01906
9.84352 1.005
9.84587 1.00258
9.84821 0.980884
9.85056 0.981382
9.8529 0.974294
9.85525 0.981188
9.85759 0.988157
9.85994 1.00278
9.86228 1.03345
9.86463 1.05332
9.86697 1.02875
9.86932 1.03063
9.87167 1.02212
9.87401 1.04245
9.87636 1.03979
9.8787 1.02934
9.88105 1.03397
9.88339 1.05798
9.88574 1.08925
9.88808 1.09489
9.89043 1.0848
9.89277 1.07926
9.89512 1.06885
9.89746 1.08415
9.89981 1.09607
9.90216 1.08917
9.9045 1.07375
9.90685 1.06105
9.90919 1.06729
9.91154 1.071
9.91388 1.07616
9.91623 1.09671
9.91857 1.10935
9.92092 1.11669
9.92326 1.11521
9.92561 1.10407
9.92795 1.10103
9.9303 1.11016
9.93264 1.11952
9.93499 1.08878
9.93734 1.08881
9.93968 1.10762
9.94203 1.12564
9.94437 1.13792
9.94672 1.15013
9.94906 1.16049
9.95141 1.14827
9.95375 1.13985
9.9561 1.13291
9.95844 1.14056
9.96079 1.15764
9.96313 1.16741
9.96548 1.16321
9.96783 1.14741
9.97017 1.13333
9.97252 1.15794
9.97486 1.15493
9.97721 1.15965
9.97955 1.16444
9.9819 1.12733
9.98424 1.09976
9.98659 1.10622
9.98893 1.11941
9.99128 1.11629
9.99362 1.12712
9.99597 1.13274
9.99832 1.1467
10.0007 1.11753
10.003 1.09194
10.0054 1.10159
10.0077 1.11715
10.01 1.11528
10.0124 1.11819
10.0147 1.13403
10.0171 1.08632
10.0194 1.06825
10.0218 1.09352
10.0241 1.08411
10.0265 1.07913
10.0288 1.07843
10.0312 1.06075
10.0335 1.03212
10.0358 1.02137
10.0382 1.04306
10.0405 1.05745
10.0429 1.05511
10.0452 1.04303
10.0476 1.02429
10.0499 1.02012
10.0523 1.03329
10.0546 1.04402
10.0569 1.03913
10.0593 1.02165
10.0616 1.01642
10.064 1.02285
10.0663 1.01009
10.0687 1.00819
10.071 1.01292
10.0734 1.02024
10.0757 1.01978
10.0781 1.00462
10.0804 1.03983
10.0827 1.03575
10.0851 0.979897
10.0874 0.979454
10.0898 0.979365
10.0921 0.976738
10.0945 0.976078
10.0968 0.973055
10.0992 0.971575
10.1015 0.990118
10.1039 0.984111
10.1062 0.98574
10.1085 0.98521
10.1109 0.982762
10.1132 0.982447
10.1156 0.98165
10.1179 0.987636
10.1203 1.00194
10.1226 1.00142
10.125 0.996551
10.1273 0.997801
10.1297 0.979259
10.132 0.969339
10.1343 0.985523
10.1367 0.997542
10.139 0.993655
10.1414 0.987116
10.1437 0.992347
10.1461 1.02429
10.1484 1.03288
10.1508 1.01071
10.1531 1.00278
10.1555 1.00127
10.1578 0.985087
10.1601 0.979572
10.1625 0.996632
10.1648 1.01423
10.1672 1.0246
10.1695 1.00763
10.1719 1.01697
10.1742 1.02203
10.1766 1.027
10.1789 1.0229
10.1813 1.03217
10.1836 1.0433
10.1859 1.03906
10.1883 1.04431
10.1906 1.0682
10.193 1.04922
10.1953 1.02447
10.1977 1.01197
10.2 1.02624
10.2024 1.03971
10.2047 1.04226
10.2071 1.04136
10.2094 1.0364
10.2117 1.01896
10.2141 1.03022
10.2164 1.03822
10.2188 1.02704
10.2211 1.02646
10.2235 1.04088
10.2258 1.04815
10.2282 1.03992
10.2305 1.03058
10.2329 1.03043
10.2352 1.02283
10.2375 1.03857
10.2399 1.03404
10.2422 1.02073
10.2446 1.02483
10.2469 1.03423
10.2493 1.04276
10.2516 1.04537
10.254 1.04792
10.2563 1.07063
10.2587 1.08486
10.261 1.06582
10.2633 1.0363
10.2657 1.03778
10.268 1.04869
10.2704 1.05866
10.2727 1.05856
10.2751 1.04998
10.2774 1.0494
10.2798 1.06237
10.2821 1.04212
10.2845 1.04196
10.2868 1.04378
10.2891 1.05389
10.2915 1.0471
10.2938 1.0394
10.2962 1.04348
10.2985 1.04404
10.3009 1.02946
10.3032 1.03077
10.3056 1.00856
10.3079 1.01345
10.3102 1.02702
10.3126 1.0364
10.3149 1.04805
10.3173 1.05194
10.3196 1.0332
10.322 1.0148
10.3243 1.04088
10.3267 1.06514
10.329 1.07015
10.3314 1.05592
10.3337 1.03278
10.336 1.03115
10.3384 1.03331
10.3407 1.04276
10.3431 1.05706
10.3454 1.06435
10.3478 1.07033
10.3501 1.07052
10.3525 1.03795
10.3548 1.00441
10.3572 1.0041
10.3595 1.0057
10.3618 1.02519
10.3642 1.04095
10.3665 1.03951
10.3689 1.04433
10.3712 1.06294
10.3736 1.05166
10.3759 1.07039
10.3783 1.05812
10.3806 1.0489
10.383 1.00911
10.3853 1.00337
10.3876 1.0335
10.39 1.04845
10.3923 1.02939
10.3947 1.01173
10.397 1.01147
10.3994 1.00427
10.4017 0.986109
10.4041 0.991594
10.4064 1.02215
10.4088 1.01203
10.4111 0.989636
10.4134 1.00325
10.4158 1.02732
10.4181 1.01378
10.4205 1.00192
10.4228 1.03062
10.4252 1.04268
10.4275 1.0022
10.4299 1.00411
10.4322 1.0197
10.4346 1.02575
10.4369 1.02713
10.4392 1.02847
10.4416 1.02953
10.4439 1.02468
10.4463 1.00831
10.4486 0.991214
10.451 0.993621
10.4533 1.02757
10.4557 1.03796
10.458 1.01797
10.4604 1.00391
10.4627 1.01635
10.465 1.03409
10.4674 1.02988
10.4697 1.04467
10.4721 1.06118
10.4744 1.05132
10.4768 1.0252
10.4791 1.02005
10.4815 1.02371
10.4838 1.01692
10.4862 1.02071
10.4885 1.05754
10.4908 1.06227
10.4932 1.06489
10.4955 1.02019
10.4979 1.01144
10.5002 1.01851
10.5026 1.01882
10.5049 1.03316
10.5073 1.04298
10.5096 1.02694
10.512 1.01283
10.5143 0.992972
10.5166 0.965572
10.519 0.960205
10.5213 0.954375
10.5237 0.971705
10.526 0.992608
10.5284 1.01676
10.5307 1.01111
10.5331 0.981308
10.5354 0.983614
10.5378 1.00078
10.5401 0.998351
10.5424 0.953973
10.5448 0.965321
10.5471 0.984713
10.5495 1.00398
10.5518 1.00443
10.5542 0.982363
10.5565 0.967729
10.5589 0.985251
10.5612 1.00622
10.5635 0.994472
10.5659 0.994507
10.5682 1.01661
10.5706 0.971424
10.5729 0.970827
10.5753 1.00014
10.5776 1.01149
10.58 0.992992
10.5823 0.970169
10.5847 0.966089
10.587 0.970372
10.5893 0.954282
10.5917 0.988997
10.594 1.00319
10.5964 0.990578
10.5987 0.955633
10.6011 0.944354
10.6034 0.953048
10.6058 0.957751
10.6081 0.963636
10.6105 0.980576
10.6128 0.985022
10.6151 0.985048
10.6175 0.959417
10.6198 0.96873
10.6222 0.966549
10.6245 0.964169
10.6269 0.974047
10.6292 0.969522
10.6316 0.948262
10.6339 0.959597
10.6363 0.989178
10.6386 0.954632
10.6409 0.949103
10.6433 0.98477
10.6456 0.968015
10.648 0.964728
10.6503 0.983151
10.6527 0.992275
10.655 0.983437
10.6574 0.976239
10.6597 0.97687
10.6621 0.97346
10.6644 1.01166
10.6667 1.02082
10.6691 1.00054
10.6714 0.999914
10.6738 1.00312
10.6761 0.989418
10.6785 0.986647
10.6808 1.00137
10.6832 1.00539
10.6855 1.02053
10.6879 1.01333
10.6902 1.03522
10.6925 1.01466
10.6949 1.00436
10.6972 0.999355
10.6996 1.00222
10.7019 1.00174
10.7043 0.991349
10.7066 0.982979
10.709 0.984639
10.7113 0.973281
10.7137 0.958454
10.716 0.978566
10.7183 1.00789
10.7207 0.992011
10.723 0.981174
10.7254 0.981245
10.7277 0.986855
10.7301 0.994787
10.7324 1.00093
10.7348 1.00295
10.7371 1.00255
10.7395 0.979976
10.7418 0.985115
10.7441 0.980923
10.7465 0.977116
10.7488 0.979355
10.7512 0.983139
10.7535 0.981333
10.7559 0.981383
10.7582 0.9839
10.7606 0.973052
10.7629 0.980452
10.7653 1.01876
10.7676 0.998987
10.7699 0.985573
10.7723 0.978925
10.7746 0.984461
10.777 0.99289
10.7793 0.994236
10.7817 0.997506
10.784 1.01216
10.7864 1.01853
10.7887 0.996878
10.7911 0.990636
10.7934 0.988467
10.7957 0.967062
10.7981 0.990357
10.8004 0.982694
10.8028 0.966059
10.8051 0.976173
10.8075 0.999348
10.8098 1.00763
10.8122 1.01078
10.8145 1.0259
10.8168 1.0169
10.8192 1.01007
10.8215 0.998972
10.8239 0.99639
10.8262 0.98996
10.8286 0.995744
10.8309 1.0032
10.8333 1.00249
10.8356 0.994281
10.838 0.98393
10.8403 1.00601
10.8426 1.00983
10.845 0.971797
10.8473 0.976258
10.8497 0.974356
10.852 1.01949
10.8544 1.04056
10.8567 1.02283
10.8591 1.01823
10.8614 1.02438
10.8638 0.992821
10.8661 0.979368
10.8684 0.988468
10.8708 1.0176
10.8731 1.0158
10.8755 0.992999
10.8778 1.02236
10.8802 1.04154
10.8825 1.02772
10.8849 1.00393
10.8872 0.994808
10.8896 0.98669
10.8919 0.946979
10.8942 0.94952
10.8966 1.00248
10.8989 1.01013
10.9013 1.00818
10.9036 1.0151
10.906 1.03708
10.9083 1.03559
10.9107 1.0306
10.913 1.01429
10.9154 0.978901
10.9177 0.984292
10.92 0.983742
10.9224 0.989916
10.9247 1.01713
10.9271 1.02477
10.9294 0.99861
10.9318 0.9974
10.9341 0.987859
10.9365 0.972858
10.9388 0.967526
10.9412 0.971573
10.9435 0.977884
10.9458 0.979858
10.9482 1.00154
10.9505 1.02636
10.9529 1.01914
10.9552 1.01899
10.9576 1.02208
10.9599 1.02833
10.9623 1.04284
10.9646 1.03943
10.967 1.02344
10.9693 1.02676
10.9716 1.03602
10.974 1.0241
10.9763 1.02284
10.9787 1.01064
10.981 1.02414
10.9834 1.03632
10.9857 1.04026
10.9881 1.02966
10.9904 1.02662
10.9928 1.02335
10.9951 1.01577
10.9974 1.02608
10.9998 1.0427
11.0021 1.02672
11.0045 1.01072
11.0068 1.02213
11.0092 1.02965
11.0115 1.01516
11.0139 0.99851
11.0162 0.997733
11.0186 1.01607
11.0209 1.02876
11.0232 1.03183
11.0256 1.03969
11.0279 1.02217
11.0303 1.00851
11.0326 1.02458
11.035 1.02816
11.0373 1.03161
11.0397 1.02788
11.042 1.01913
11.0444 1.01803
11.0467 1.02143
11.049 1.02137
11.0514 1.01821
11.0537 1.0199
11.0561 1.03442
11.0584 1.0498
11.0608 1.05155
11.0631 1.03797
11.0655 1.02668
11.0678 1.015
11.0701 1.01975
11.0725 1.02829
11.0748 1.03037
11.0772 1.03391
11.0795 1.03583
11.0819 1.02674
11.0842 1.03739
11.0866 1.0608
11.0889 1.04659
11.0913 1.06266
11.0936 1.05275
11.0959 1.04224
11.0983 1.05561
11.1006 1.05528
11.103 1.03869
11.1053 1.02431
11.1077 1.02238
11.11 1.03177
11.1124 1.03767
11.1147 1.04725
11.1171 1.03411
11.1194 1.04975
11.1217 1.05099
11.1241 1.039
11.1264 1.02415
11.1288 1.02696
11.1311 1.04259
11.1335 1.04983
11.1358 1.04869
11.1382 1.04662
11.1405 1.02834
11.1429 1.0265
11.1452 1.02158
11.1475 1.02217
11.1499 1.0252
11.1522 1.03239
11.1546 1.03106
11.1569 1.02273
11.1593 1.03542
11.1616 1.0407
11.164 1.02498
11.1663 1.02613
11.1687 1.03607
11.171 1.00938
11.1733 1.02206
11.1757 1.03418
11.178 1.06702
11.1804 1.05074
11.1827 1.05514
11.1851 1.07433
11.1874 1.05229
11.1898 1.01812
11.1921 1.01278
11.1945 1.02812
11.1968 1.04226
11.1991 1.03691
11.2015 1.02042
11.2038 1.00583
11.2062 0.993311
11.2085 0.994391
11.2109 1.01821
11.2132 1.04187
11.2156 1.06941
11.2179 1.07103
11.2203 1.04771
11.2226 1.04052
11.2249 1.05664
11.2273 1.0596
11.2296 1.06059
11.232 1.03113
11.2343 1.01555
11.2367 1.07087
11.239 1.07859
11.2414 1.03847
11.2437 1.06145
11.2461 1.05535
11.2484 1.04339
11.2507 1.0396
11.2531 1.01959
11.2554 1.00839
11.2578 0.99964
11.2601 0.996194
11.2625 1.0248
11.2648 1.05403
11.2672 1.03629
11.2695 1.01135
11.2719 1.02124
11.2742 1.04186
11.2765 1.05226
11.2789 1.04674
11.2812 1.03401
11.2836 1.0274
11.2859 1.02317
11.2883 1.0089
11.2906 1.02042
11.293 1.01311
11.2953 0.988232
11.2977 1.01656
11.3 1.01519
11.3023 1.01369
11.3047 1.00049
11.307 0.988834
11.3094 0.995907
11.3117 0.997361
11.3141 0.990333
11.3164 1.01256
11.3188 1.02904
11.3211 1.01548
11.3234 0.99852
11.3258 1.00673
11.3281 0.998106
11.3305 1.00938
11.3328 1.02386
11.3352 1.01132
11.3375 0.984293
11.3399 0.994634
11.3422 1.01789
11.3446 1.02727
11.3469 1.05116
11.3492 1.05189
11.3516 1.08396
11.3539 1.06582
11.3563 1.03694
11.3586 1.02494
11.361 1.00399
11.3633 1.03488
11.3657 1.03796
11.368 1.0247
11.3704 1.02351
11.3727 1.03152
11.375 1.02778
11.3774 1.01165
11.3797 1.01957
11.3821 1.05266
11.3844 1.04059
11.3868 1.02295
11.3891 1.04021
11.3915 1.02586
11.3938 1.00707
11.3962 1.02372
11.3985 1.05686
11.4008 1.06144
11.4032 1.04587
11.4055 1.03389
11.4079 1.0312
11.4102 1.03505
11.4126 1.0157
11.4149 1.02978
11.4173 1.03241
11.4196 1.0218
11.422 1.02249
11.4243 1.02614
11.4266 1.02126
11.429 1.00943
11.4313 1.00332
11.4337 1.00419
11.436 0.999728
11.4384 0.992664
11.4407 0.992412
11.4431 0.98614
11.4454 0.991958
11.4478 1.02815
11.4501 1.02874
11.4524 1.02534
11.4548 1.03006
11.4571 1.03904
11.4595 1.02791
11.4618 1.05199
11.4642 1.06981
11.4665 1.06452
11.4689 1.06096
11.4712 1.04978
11.4736 1.02425
11.4759 1.03385
11.4782 1.04359
11.4806 1.01336
11.4829 1.00481
11.4853 0.995344
11.4876 1.01553
11.49 1.03999
11.4923 1.04283
11.4947 1.02011
11.497 0.983562
11.4994 0.959706
11.5017 0.97619
11.504 1.0157
11.5064 1.03814
11.5087 1.0618
11.5111 1.0683
11.5134 1.06546
11.5158 1.03406
11.5181 1.03381
11.5205 1.02965
11.5228 1.03825
11.5252 1.01983
11.5275 1.01757
11.5298 1.0358
11.5322 1.04286
11.5345 1.02314
11.5369 0.991419
11.5392 0.979489
11.5416 1.00633
11.5439 1.03558
11.5463 1.02793
11.5486 1.02693
11.551 1.02062
11.5533 1.04361
11.5556 1.02166
11.558 1.01535
11.5603 1.03229
11.5627 1.02369
11.565 1.01851
11.5674 1.03303
11.5697 1.03865
11.5721 1.02761
11.5744 1.01402
11.5767 1.04593
11.5791 1.05263
11.5814 1.04431
11.5838 1.04974
11.5861 1.03031
11.5885 0.995769
11.5908 1.00588
11.5932 1.02995
11.5955 1.02331
11.5979 1.00508
11.6002 0.985968
11.6025 0.978475
11.6049 1.00156
11.6072 1.02401
11.6096 1.02594
11.6119 1.06589
11.6143 1.07526
11.6166 1.05806
11.619 1.02982
11.6213 1.01934
11.6237 1.02481
11.626 1.05155
11.6283 1.04159
11.6307 1.01007
11.633 0.992877
11.6354 0.99615
11.6377 1.0022
11.6401 1.00826
11.6424 1.03687
11.6448 1.06646
11.6471 1.04293
11.6495 1.015
11.6518 1.03288
11.6541 1.03483
11.6565 1.0604
11.6588 1.03029
11.6612 0.983855
11.6635 1.0003
11.6659 1.02384
11.6682 1.04048
11.6706 1.05438
11.6729 1.04787
11.6753 1.03453
11.6776 1.04088
11.6799 1.06977
11.6823 1.07581
11.6846 1.0714
11.687 1.0533
11.6893 1.03645
11.6917 1.05034
11.694 1.07425
11.6964 1.06187
11.6987 1.03681
11.7011 1.04475
11.7034 1.05171
11.7057 1.03608
11.7081 1.04407
11.7104 1.06666
11.7128 1.04006
11.7151 1.03202
11.7175 1.02159
11.7198 1.02797
11.7222 1.04414
11.7245 1.07489
11.7269 1.06922
11.7292 1.06213
11.7315 1.04882
11.7339 1.0512
11.7362 1.07851
11.7386 1.09897
11.7409 1.10017
11.7433 1.09106
11.7456 1.07047
11.748 1.04702
11.7503 1.04495
11.7527 1.05079
11.755 1.063
11.7573 1.0886
11.7597 1.06756
11.762 1.07427
11.7644 1.106
11.7667 1.08832
11.7691 1.07234
11.7714 1.09795
11.7738 1.12618
11.7761 1.12477
11.7785 1.07989
11.7808 1.03003
11.7831 1.03162
11.7855 1.05394
11.7878 1.05308
11.7902 1.06066
11.7925 1.12239
11.7949 1.12303
11.7972 1.10321
11.7996 1.09745
11.8019 1.08631
11.8043 1.09242
11.8066 1.07558
11.8089 1.06561
11.8113 1.05958
11.8136 1.06191
11.816 1.077
11.8183 1.0837
11.8207 1.07219
11.823 1.06613
11.8254 1.08019
11.8277 1.08762
11.83 1.06487
11.8324 1.06848
11.8347 1.05625
11.8371 1.07353
11.8394 1.0922
11.8418 1.08919
11.8441 1.09081
11.8465 1.11648
11.8488 1.10587
11.8512 1.11115
11.8535 1.11784
11.8558 1.08985
11.8582 1.09189
11.8605 1.13721
11.8629 1.17291
11.8652 1.17497
11.8676 1.16489
11.8699 1.10681
11.8723 1.07986
11.8746 1.08998
11.877 1.09785
11.8793 1.0962
11.8816 1.11773
11.884 1.12984
11.8863 1.1066
11.8887 1.08975
11.891 1.09448
11.8934 1.09771
11.8957 1.09526
11.8981 1.09303
11.9004 1.08446
11.9028 1.07858
11.9051 1.07312
11.9074 1.07705
11.9098 1.05269
11.9121 1.08149
11.9145 1.06255
11.9168 1.07359
11.9192 1.11944
11.9215 1.13171
11.9239 1.10854
11.9262 1.11738
11.9286 1.1296
11.9309 1.12665
11.9332 1.13098
11.9356 1.14007
11.9379 1.13875
11.9403 1.12385
11.9426 1.1067
11.945 1.10684
11.9473 1.06888
11.9497 1.04165
11.952 1.06511
11.9544 1.04491
11.9567 1.07457
11.959 1.10262
11.9614 1.06794
11.9637 1.03591
11.9661 1.03677
11.9684 1.08205
11.9708 1.09694
11.9731 1.05453
11.9755 1.04064
11.9778 1.07192
11.9802 1.07511
11.9825 1.07521
11.9848 1.07526
11.9872 1.02567
11.9895 1.05029
11.9919 1.04463
11.9942 1.05736
11.9966 1.06896
11.9989 1.087
12.0013 1.06947
12.0036 1.06356
12.006 1.03969
12.0083 1.0316
12.0106 1.04994
12.013 1.05194
12.0153 1.03841
12.0177 1.05157
12.02 1.07402
12.0224 1.06603
12.0247 1.07135
12.0271 1.05739
12.0294 1.02769
12.0318 1.02461
12.0341 1.04211
12.0364 1.03413
12.0388 1.03004
12.0411 1.05123
12.0435 1.06074
12.0458 1.06132
12.0482 1.02836
12.0505 0.990332
12.0529 0.982985
12.0552 1.01464
12.0576 1.03856
12.0599 1.01124
12.0622 0.981226
12.0646 0.994281
12.0669 0.994368
12.0693 1.00079
12.0716 0.992444
12.074 0.966547
12.0763 0.943027
12.0787 0.956032
12.081 0.991103
12.0833 1.0261
12.0857 1.02858
12.088 1.00584
12.0904 0.962419
12.0927 0.958458
12.0951 0.96568
12.0974 0.955792
12.0998 0.969483
12.1021 0.988547
12.1045 0.969896
12.1068 0.95314
12.1091 0.938198
12.1115 0.936989
12.1138 0.932001
12.1162 0.933724
12.1185 0.94893
12.1209 0.962048
12.1232 0.962026
12.1256 0.955671
12.1279 0.94782
12.1303 0.930335
12.1326 0.939872
12.1349 0.960711
12.1373 0.978262
12.1396 0.97757
12.142 0.965235
12.1443 0.967751
12.1467 0.986305
12.149 0.991119
12.1514 0.966094
12.1537 0.945575
12.1561 0.981707
12.1584 0.989255
12.1607 0.967674
12.1631 0.930864
12.1654 0.937224
12.1678 0.942529
12.1701 0.939113
12.1725 0.942576
12.1748 0.951887
12.1772 0.930406
12.1795 0.930314
12.1819 0.925212
12.1842 0.914231
12.1865 0.913582
12.1889 0.917255
12.1912 0.89934
12.1936 0.876524
12.1959 0.890277
12.1983 0.915762
12.2006 0.937353
12.203 0.956921
12.2053 0.951966
12.2077 0.941681
12.21 0.875406
12.2123 0.85994
12.2147 0.897919
12.217 0.938535
12.2194 0.911238
12.2217 0.899978
12.2241 0.907527
12.2264 0.904266
12.2288 0.866341
12.2311 0.875217
12.2335 0.91635
12.2358 0.931971
12.2381 0.952224
12.2405 0.984421
12.2428 0.978928
12.2452 0.956417
12.2475 0.941581
12.2499 0.918831
12.2522 0.957815
12.2546 0.9847
12.2569 0.984278
12.2593 0.953634
12.2616 1.00412
12.2639 0.939214
12.2663 0.933363
12.2686 0.963967
12.271 0.944781
12.2733 0.928872
12.2757 0.945175
12.278 0.958621
12.2804 0.948945
12.2827 0.95689
12.2851 0.987074
12.2874 1.00121
12.2897 0.993824
12.2921 0.972982
12.2944 0.948251
12.2968 0.953839
12.2991 0.958276
12.3015 0.951534
12.3038 0.945715
12.3062 0.925184
12.3085 0.904996
12.3109 0.891842
12.3132 0.922876
12.3155 0.913205
12.3179 0.924654
12.3202 0.929104
12.3226 0.926306
12.3249 0.904904
12.3273 0.910642
12.3296 0.921634
12.332 0.93978
12.3343 0.945572
12.3366 0.924987
12.339 0.909254
12.3413 0.912898
12.3437 0.92597
12.346 0.920466
12.3484 0.882921
12.3507 0.877194
12.3531 0.88476
12.3554 0.917165
12.3578 0.897721
12.3601 0.916682
12.3624 0.954312
12.3648 0.955389
12.3671 0.953478
12.3695 0.967194
12.3718 1.00241
12.3742 0.981981
12.3765 0.932778
12.3789 0.91081
12.3812 0.91456
12.3836 0.940199
12.3859 0.956746
12.3882 0.940836
12.3906 0.918214
12.3929 0.909625
12.3953 0.921158
12.3976 0.954049
12.4 0.964012
12.4023 0.950203
12.4047 0.930502
12.407 0.948415
12.4094 0.933436
12.4117 0.927745
12.414 0.950675
12.4164 0.984089
12.4187 0.964218
12.4211 0.936532
12.4234 0.975771
12.4258 0.956161
12.4281 0.924763
12.4305 0.954682
12.4328 0.982781
12.4352 0.970119
12.4375 0.966297
12.4398 0.981225
12.4422 0.970765
12.4445 0.946997
12.4469 0.932908
12.4492 0.923503
12.4516 0.942232
12.4539 0.970451
12.4563 0.980284
12.4586 0.946942
12.461 0.941839
12.4633 0.975306
12.4656 0.983641
12.468 1.00294
12.4703 0.9431
12.4727 0.907525
12.475 0.930087
12.4774 0.906553
12.4797 0.925982
12.4821 0.969353
12.4844 0.978892
12.4868 0.975993
12.4891 0.953714
12.4914 0.935162
12.4938 0.934383
12.4961 0.945228
12.4985 0.959888
12.5008 0.961899
12.5032 0.957332
12.5055 0.977477
12.5079 1.01055
12.5102 1.00581
12.5126 0.964179
12.5149 0.952518
12.5172 0.966138
12.5196 0.983613
12.5219 0.970012
12.5243 0.923505
12.5266 0.910373
12.529 0.932252
12.5313 0.943204
12.5337 0.946637
12.536 0.94888
12.5384 0.934486
12.5407 0.9324
12.543 0.984818
12.5454 1.01492
12.5477 1.02097
12.5501 1.00104
12.5524 0.980778
12.5548 0.974324
12.5571 0.967802
12.5595 0.9839
12.5618 0.965523
12.5642 0.923494
12.5665 0.953965
12.5688 0.983284
12.5712 0.985415
12.5735 0.948389
12.5759 0.941395
12.5782 0.932471
12.5806 0.959426
12.5829 0.974804
12.5853 0.997262
12.5876 0.942325
12.59 0.943328
12.5923 1.0253
12.5946 0.98532
12.597 0.957482
12.5993 0.939656
12.6017 0.995796
12.604 1.02497
12.6064 1.03145
12.6087 0.993747
12.6111 0.939167
12.6134 0.966682
12.6157 0.981952
12.6181 0.976086
12.6204 0.998692
12.6228 1.01654
12.6251 1.00791
12.6275 0.995374
12.6298 0.979654
12.6322 0.945331
12.6345 0.919229
12.6369 0.937809
12.6392 0.960432
12.6415 0.937341
12.6439 0.944863
12.6462 0.945014
12.6486 0.952057
12.6509 0.930671
12.6533 0.918272
12.6556 0.908576
12.658 0.968156
12.6603 0.953205
12.6627 0.934374
12.665 0.930554
12.6673 0.916027
12.6697 0.917158
12.672 0.953935
12.6744 0.97316
12.6767 0.943724
12.6791 0.968047
12.6814 0.991386
12.6838 0.953453
12.6861 0.909875
12.6885 0.88063
12.6908 0.871799
12.6931 0.899
12.6955 0.926581
12.6978 0.95337
12.7002 0.978961
12.7025 0.95432
12.7049 0.944557
12.7072 0.94869
12.7096 0.970744
12.7119 0.948811
12.7143 0.914846
12.7166 0.941613
12.7189 0.964049
12.7213 0.962197
12.7236 0.952166
12.726 0.95118
12.7283 0.897449
12.7307 0.894734
12.733 0.893049
12.7354 0.883013
12.7377 0.911204
12.7401 0.91887
12.7424 0.933426
12.7447 0.94526
12.7471 0.970344
12.7494 0.992586
12.7518 0.972628
12.7541 0.952393
12.7565 0.938426
12.7588 0.904908
12.7612 0.891914
12.7635 0.90769
12.7659 0.919103
12.7682 0.925965
12.7705 0.926821
12.7729 0.941122
12.7752 0.960703
12.7776 0.933089
12.7799 0.944325
12.7823 0.963845
12.7846 0.959555
12.787 0.936128
12.7893 0.944377
12.7917 0.95098
12.794 0.936667
12.7963 0.945017
12.7987 0.930022
12.801 0.92281
12.8034 0.991071
12.8057 0.985143
12.8081 0.958739
12.8104 0.982282
12.8128 1.00455
12.8151 0.977551
12.8175 0.960073
12.8198 0.967184
12.8221 0.987182
12.8245 0.990548
12.8268 0.986514
12.8292 0.991948
12.8315 0.976257
12.8339 0.967109
12.8362 0.986803
12.8386 0.966551
12.8409 0.940698
12.8433 0.958236
12.8456 0.983766
12.8479 0.97756
12.8503 0.956337
12.8526 0.96875
12.855 0.981254
12.8573 0.984493
12.8597 0.997049
12.862 0.969685
12.8644 0.96132
12.8667 0.982578
12.869 0.996954
12.8714 1.00866
12.8737 1.02534
12.8761 1.01034
12.8784 0.992282
12.8808 0.972825
12.8831 0.949312
12.8855 0.934397
12.8878 0.991319
12.8902 0.982035
12.8925 0.962029
12.8948 0.964454
12.8972 0.979587
12.8995 1.01258
12.9019 1.00265
12.9042 0.997744
12.9066 0.97556
12.9089 0.978078
12.9113 1.01295
12.9136 1.03147
12.916 1.04973
12.9183 1.03125
12.9206 1.00313
12.923 0.984733
12.9253 0.961244
12.9277 0.962191
12.93 1.00148
12.9324 1.03361
12.9347 1.04033
12.9371 1.01867
12.9394 0.980877
12.9418 0.981007
12.9441 1.01158
12.9464 0.999533
12.9488 0.931364
12.9511 0.911324
12.9535 0.956073
12.9558 0.974088
12.9582 1.00121
12.9605 0.991125
12.9629 0.999304
12.9652 1.0083
12.9676 1.00832
12.9699 0.985537
12.9722 0.993914
12.9746 0.989294
12.9769 1.01014
12.9793 1.02884
12.9816 0.951124
12.984 0.955467
12.9863 0.968535
12.9887 0.958126
12.991 0.935936
12.9934 0.974938
12.9957 0.996085
12.998 1.03337
13.0004 1.0085
13.0027 0.966936
13.0051 0.986922
13.0074 0.965948
13.0098 0.93852
13.0121 0.949125
13.0145 0.968761
13.0168 0.979529
13.0192 0.990048
13.0215 0.998084
13.0238 1.00514
13.0262 1.01809
13.0285 1.00391
13.0309 0.996831
13.0332 0.999146
13.0356 0.986557
13.0379 0.981068
13.0403 0.974314
13.0426 0.987125
13.045 1.03946
13.0473 1.05594
13.0496 1.02153
13.052 0.997601
13.0543 0.98206
13.0567 0.975114
13.059 0.988286
13.0614 0.984655
13.0637 0.985371
13.0661 0.979591
13.0684 0.992727
13.0708 0.96387
13.0731 0.978109
13.0754 0.992549
13.0778 0.971973
13.0801 0.94659
13.0825 0.934306
13.0848 0.951046
13.0872 0.976487
13.0895 0.970257
13.0919 0.93218
13.0942 0.894013
13.0966 0.879999
13.0989 0.938839
13.1012 0.926938
13.1036 0.956708
13.1059 0.981487
13.1083 0.952626
13.1106 0.953467
13.113 0.955321
13.1153 0.977416
13.1177 1.05664
13.12 1.02475
13.1223 0.985571
13.1247 0.982686
13.127 0.993826
13.1294 1.00298
13.1317 1.00198
13.1341 1.00354
13.1364 1.00509
13.1388 0.973305
13.1411 0.948785
13.1435 0.954402
13.1458 0.979724
13.1481 1.00709
13.1505 0.998126
13.1528 0.963948
13.1552 0.963452
13.1575 0.987635
13.1599 1.00955
13.1622 0.994623
13.1646 0.968516
13.1669 0.966296
13.1693 0.963428
13.1716 0.973383
13.1739 0.980051
13.1763 0.953208
13.1786 0.947822
13.181 0.984765
13.1833 1.01085
13.1857 1.00608
13.188 1.00267
13.1904 1.01674
13.1927 1.02744
13.1951 1.00896
13.1974 1.00174
13.1997 1.02967
13.2021 1.04617
13.2044 1.04028
13.2068 1.01547
13.2091 0.990262
13.2115 0.98682
13.2138 0.987572
13.2162 1.01892
13.2185 1.02832
13.2209 0.978591
13.2232 0.979815
13.2255 1.03116
13.2279 1.03114
13.2302 0.959902
13.2326 0.935885
13.2349 0.96327
13.2373 1.0066
13.2396 1.0012
13.242 0.982425
13.2443 0.98707
13.2467 1.02541
13.249 1.00042
13.2513 0.904094
13.2537 0.920161
13.256 0.995534
13.2584 0.991777
13.2607 0.98153
13.2631 0.978172
13.2654 0.952641
13.2678 0.993604
13.2701 1.01843
13.2725 1.03375
13.2748 1.02903
13.2771 1.02981
13.2795 1.04786
13.2818 1.04257
13.2842 1.0307
13.2865 0.978057
13.2889 0.97583
13.2912 1.00614
13.2936 0.992458
13.2959 0.972857
13.2983 0.968616
13.3006 0.960916
13.3029 0.950838
13.3053 0.967522
13.3076 0.968574
13.31 0.941304
13.3123 0.967825
13.3147 0.978222
13.317 0.944584
13.3194 0.966948
13.3217 0.984489
13.3241 0.966317
13.3264 0.97539
13.3287 1.00072
13.3311 1.03026
13.3334 1.02212
13.3358 1.00454
13.3381 1.02034
13.3405 1.02828
13.3428 1.02886
13.3452 1.04478
13.3475 1.04108
13.3499 1.02628
13.3522 1.00666
13.3545 0.982223
13.3569 0.950762
13.3592 0.963388
13.3616 1.00156
13.3639 1.00106
13.3663 0.972203
13.3686 0.962818
13.371 0.994501
13.3733 1.02436
13.3756 1.01328
13.378 0.985007
13.3803 0.968661
13.3827 0.966664
13.385 0.988715
13.3874 0.98643
13.3897 0.96379
13.3921 0.97666
13.3944 0.993923
13.3968 1.00428
13.3991 1.01725
13.4014 0.999073
13.4038 0.991415
13.4061 1.02351
13.4085 1.02875
13.4108 0.985647
13.4132 0.996155
13.4155 1.00097
13.4179 1.00181
13.4202 1.0495
13.4226 1.05452
13.4249 1.01259
13.4272 0.994729
13.4296 0.984559
13.4319 0.9538
13.4343 0.950494
13.4366 0.965421
13.439 0.996589
13.4413 1.01607
13.4437 1.00869
13.446 0.997683
13.4484 1.01205
13.4507 1.00284
13.453 1.00861
13.4554 1.02043
13.4577 1.0109
13.4601 0.998434
13.4624 0.990786
13.4648 0.982657
13.4671 0.985905
13.4695 1.0088
13.4718 0.997233
13.4742 0.956552
13.4765 0.988796
13.4788 1.01954
13.4812 1.05334
13.4835 1.03421
13.4859 1.04753
13.4882 1.07555
13.4906 1.04472
13.4929 1.03844
13.4953 1.07046
13.4976 1.06283
13.5 1.0198
13.5023 0.976494
13.5046 0.966848
13.507 0.967456
13.5093 0.9503
13.5117 0.951015
13.514 0.98964
13.5164 1.01142
13.5187 0.972853
13.5211 0.984737
13.5234 1.00597
13.5258 0.991571
13.5281 0.982035
13.5304 1.04589
13.5328 1.0595
13.5351 1.0174
13.5375 1.01892
13.5398 1.01052
13.5422 0.97586
13.5445 0.980868
13.5469 0.977657
13.5492 1.00456
13.5516 1.09671
13.5539 1.1009
13.5562 1.05606
13.5586 1.04061
13.5609 1.02422
13.5633 0.985363
13.5656 1.0252
13.568 1.05019
13.5703 1.03373
13.5727 1.04046
13.575 1.04574
13.5774 1.04179
13.5797 1.06527
13.582 1.06653
13.5844 1.07486
13.5867 1.0659
13.5891 0.994615
13.5914 0.99079
13.5938 0.973742
13.5961 1.00245
13.5985 1.02851
13.6008 1.05499
13.6032 1.10616
13.6055 1.0869
13.6078 1.02871
13.6102 1.0081
13.6125 1.00715
13.6149 1.02129
13.6172 1.04233
13.6196 1.06883
13.6219 1.05616
13.6243 1.01965
13.6266 1.02412
13.6289 1.06254
13.6313 1.06149
13.6336 1.01439
13.636 1.02115
13.6383 1.04013
13.6407 1.04185
13.643 1.04119
13.6454 1.04739
13.6477 1.05132
13.6501 1.07204
13.6524 1.05647
13.6547 1.02118
13.6571 1.0025
13.6594 0.997497
13.6618 0.99606
13.6641 1.01308
13.6665 1.02396
13.6688 1.01729
13.6712 0.998725
13.6735 1.01106
13.6759 1.0055
13.6782 1.02055
13.6805 1.03118
13.6829 1.01076
13.6852 0.990825
13.6876 0.969526
13.6899 0.942175
13.6923 0.948847
13.6946 0.98124
13.697 1.02325
13.6993 1.04904
13.7017 1.05276
13.704 1.07071
13.7063 1.02631
13.7087 0.987584
13.711 1.00173
13.7134 1.01829
13.7157 1.00711
13.7181 0.992059
13.7204 0.989486
13.7228 1.02318
13.7251 1.04134
13.7275 1.0076
13.7298 0.984028
13.7321 0.980891
13.7345 0.99362
13.7368 0.996017
13.7392 1.00623
13.7415 1.02122
13.7439 1.03205
13.7462 1.03951
13.7486 1.0005
13.7509 0.932753
13.7533 0.943799
13.7556 0.99922
13.7579 1.00927
13.7603 0.981706
13.7626 0.983267
13.765 0.998465
13.7673 0.987787
13.7697 0.988341
13.772 0.967541
13.7744 0.954286
13.7767 0.9284
13.7791 0.922676
13.7814 0.964143
13.7837 1.00324
13.7861 1.01753
13.7884 1.0081
13.7908 0.987217
13.7931 1.02289
13.7955 1.01782
13.7978 1.01551
13.8002 0.994603
13.8025 1.0248
13.8049 1.06491
13.8072 1.02511
13.8095 0.988357
13.8119 0.974885
13.8142 0.980033
13.8166 1.01384
13.8189 0.958761
13.8213 0.975435
13.8236 1.0328
13.826 1.05751
13.8283 1.0454
13.8307 1.03031
13.833 1.03173
13.8353 1.0117
13.8377 1.01935
13.84 1.01367
13.8424 1.01326
13.8447 1.0451
13.8471 1.04583
13.8494 1.0167
13.8518 0.983985
13.8541 1.02803
13.8565 0.96899
13.8588 0.927867
13.8611 0.999508
13.8635 1.01252
13.8658 1.02329
13.8682 1.01772
13.8705 1.00116
13.8729 1.03544
13.8752 1.03242
13.8776 1.00105
13.8799 0.986695
13.8822 1.02531
13.8846 1.0413
13.8869 1.01046
13.8893 0.999577
13.8916 1.03222
13.894 1.0437
13.8963 1.04544
13.8987 1.03507
13.901 1.00623
13.9034 1.0028
13.9057 1.01228
13.908 1.03043
13.9104 1.02152
13.9127 1.03245
13.9151 1.05299
13.9174 1.05355
13.9198 1.03212
13.9221 1.01235
13.9245 1.01104
13.9268 1.02058
13.9292 1.00889
13.9315 1.0032
13.9338 0.986384
13.9362 0.987328
13.9385 0.971193
13.9409 0.948149
13.9432 0.967809
13.9456 0.985567
13.9479 0.9807
13.9503 0.988378
13.9526 0.984224
13.955 1.02773
13.9573 1.05839
13.9596 1.04004
13.962 1.02453
13.9643 1.03334
13.9667 1.04363
13.969 1.07229
13.9714 1.04668
13.9737 1.00611
13.9761 1.02129
13.9784 1.00782
13.9808 1.00959
13.9831 0.986579
13.9854 0.978243
13.9878 0.943488
13.9901 1.02514
13.9925 1.05462
13.9948 0.975896
13.9972 0.981083
13.9995 1.00924
14.0019 1.04183
14.0042 1.04538
14.0066 0.982575
14.0089 0.97489
14.0112 0.962448
14.0136 1.00353
14.0159 0.992147
14.0183 1.02608
14.0206 1.03653
14.023 1.02092
14.0253 1.02835
14.0277 1.04326
14.03 1.03839
14.0324 1.02482
14.0347 0.966263
14.037 0.94084
14.0394 0.952175
14.0417 0.928269
14.0441 0.932863
14.0464 0.948288
14.0488 0.976208
14.0511 0.991501
14.0535 0.999793
14.0558 1.02369
14.0582 1.02983
14.0605 1.03545
14.0628 1.05793
14.0652 1.04786
14.0675 1.02486
14.0699 1.00796
14.0722 1.02731
14.0746 1.0368
14.0769 1.06552
14.0793 1.03896
14.0816 1.05901
14.084 1.04104
14.0863 1.02967
14.0886 1.06627
14.091 1.01065
14.0933 0.999862
14.0957 1.00975
14.098 1.00104
14.1004 0.970254
14.1027 0.99135
14.1051 0.99642
14.1074 0.962908
14.1098 0.993958
14.1121 0.991202
14.1144 1.00505
14.1168 1.01339
14.1191 1.04777
14.1215 1.04281
14.1238 1.02834
14.1262 1.01753
14.1285 1.01409
14.1309 1.01672
14.1332 1.03526
14.1355 1.06226
14.1379 1.07756
14.1402 1.08078
14.1426 1.04408
14.1449 1.00739
14.1473 0.980235
14.1496 0.986961
14.152 1.00706
14.1543 1.02814
14.1567 1.05224
14.159 1.04568
14.1613 1.02743
14.1637 0.991654
14.166 0.990816
14.1684 1.01665
14.1707 1.04318
14.1731 1.03029
14.1754 1.03382
14.1778 0.99449
14.1801 0.957756
14.1825 1.02137
14.1848 1.04403
14.1871 1.05074
14.1895 1.04209
14.1918 1.00219
14.1942 0.936187
14.1965 1.01044
14.1989 1.01462
14.2012 0.987582
14.2036 0.984417
14.2059 0.973076
14.2083 1.0006
14.2106 1.03171
14.2129 1.00706
14.2153 0.989485
14.2176 0.966359
14.22 0.967664
14.2223 0.996071
14.2247 1.00955
14.227 0.993689
14.2294 0.994116
14.2317 1.04058
14.2341 1.02313
14.2364 1.0032
14.2387 0.994447
14.2411 0.982674
14.2434 0.99557
14.2458 0.962534
14.2481 0.937647
14.2505 0.966974
14.2528 0.95434
14.2552 0.93875
14.2575 0.970863
14.2599 0.956743
14.2622 1.00949
14.2645 1.03069
14.2669 1.04268
14.2692 1.01674
14.2716 0.98759
14.2739 1.02643
14.2763 0.997119
14.2786 0.985715
14.281 0.973955
14.2833 1.00616
14.2857 1.02593
14.288 0.988645
14.2903 0.989196
14.2927 1.00578
14.295 1.00316
14.2974 0.99046
14.2997 1.00561
14.3021 1.00177
14.3044 0.980849
14.3068 0.967447
14.3091 0.982013
14.3115 0.996114
14.3138 0.994173
14.3161 1.01183
14.3185 1.00857
14.3208 0.974165
14.3232 0.939616
14.3255 1.00372
14.3279 1.02919
14.3302 1.02308
14.3326 1.02136
14.3349 1.04845
14.3373 1.03459
14.3396 1.02664
14.3419 1.00387
14.3443 1.03725
14.3466 1.05067
14.349 1.00364
14.3513 0.979773
14.3537 1.00099
14.356 1.07535
14.3584 1.05804
14.3607 1.01208
14.3631 1.02465
14.3654 1.03718
14.3677 1.01596
14.3701 1.01155
14.3724 1.01955
14.3748 1.001
14.3771 1.00143
14.3795 1.01786
14.3818 1.01213
14.3842 0.994089
14.3865 0.994081
14.3888 0.991255
14.3912 0.963523
14.3935 1.01055
14.3959 1.04118
14.3982 0.995851
14.4006 0.969817
14.4029 1.01372
14.4053 1.01291
14.4076 1.02796
14.41 1.01572
14.4123 0.974559
14.4146 0.981044
14.417 1.0205
14.4193 1.0357
14.4217 1.01581
14.424 0.994202
14.4264 0.986749
14.4287 0.94571
14.4311 0.957291
14.4334 1.00989
14.4358 1.00564
14.4381 1.02099
14.4404 1.00442
14.4428 0.954304
14.4451 0.962763
14.4475 1.00215
14.4498 0.994714
14.4522 1.04302
14.4545 1.04001
14.4569 0.995369
14.4592 0.968426
14.4616 0.957237
14.4639 0.923527
14.4662 0.934943
14.4686 0.993077
14.4709 0.972701
14.4733 0.922005
14.4756 0.942326
14.478 0.965873
14.4803 0.986567
14.4827 0.979104
14.485 0.964807
14.4874 0.944497
14.4897 0.949266
14.492 0.948442
14.4944 0.936968
14.4967 0.961226
14.4991 0.987804
14.5014 1.00856
14.5038 1.00075
14.5061 0.944261
14.5085 1.01242
14.5108 1.03604
14.5132 1.03004
14.5155 1.00224
14.5178 0.948637
14.5202 0.976975
14.5225 1.00297
14.5249 1.02051
14.5272 0.99431
14.5296 0.955229
14.5319 0.961263
14.5343 1.00369
14.5366 1.00503
14.539 0.997598
14.5413 0.978891
14.5436 0.950364
14.546 1.00341
14.5483 1.00428
14.5507 0.96001
14.553 0.953622
14.5554 0.97797
14.5577 0.967077
14.5601 0.996739
14.5624 1.00517
14.5648 0.946399
14.5671 0.950206
14.5694 0.928532
14.5718 0.973846
14.5741 0.985614
14.5765 0.995602
14.5788 1.04725
14.5812 1.03642
14.5835 1.00184
14.5859 1.01305
14.5882 1.02805
14.5906 1.03497
14.5929 1.04003
14.5952 1.09291
14.5976 1.10341
14.5999 1.05578
14.6023 1.04323
14.6046 0.981589
14.607 0.9813
14.6093 0.92645
14.6117 1.00409
14.614 1.04672
14.6164 1.03311
14.6187 0.984911
14.621 0.999971
14.6234 1.01128
14.6257 0.989625
14.6281 0.99724
14.6304 1.01084
14.6328 1.00038
14.6351 1.01706
14.6375 1.03995
14.6398 1.04342
14.6421 1.01671
14.6445 0.972686
14.6468 0.937349
14.6492 0.974878
14.6515 1.04273
14.6539 1.09351
14.6562 1.01087
14.6586 0.97187
14.6609 0.991991
14.6633 1.00534
14.6656 0.990598
14.6679 0.976273
14.6703 0.978672
14.6726 1.00852
14.675 1.01351
14.6773 0.996042
14.6797 0.983076
14.682 1.004
14.6844 1.00567
14.6867 1.01921
14.6891 1.04451
14.6914 1.05665
14.6937 1.01473
14.6961 0.992765
14.6984 0.943498
14.7008 0.954734
14.7031 1.00443
14.7055 1.00989
14.7078 0.97755
14.7102 1.02018
14.7125 1.02152
14.7149 1.00658
14.7172 1.01597
14.7195 1.01885
14.7219 1.01045
14.7242 0.946705
14.7266 0.976666
14.7289 1.01379
14.7313 1.01647
14.7336 1.0044
14.736 0.958533
14.7383 1.02987
14.7407 1.03399
14.743 1.01926
14.7453 1.0291
14.7477 1.01331
14.75 0.9832
14.7524 0.956608
14.7547 0.940635
14.7571 0.988866
14.7594 1.01964
14.7618 0.997415
14.7641 0.979406
14.7665 1.00324
14.7688 0.992
14.7711 0.940249
14.7735 0.974521
14.7758 0.962399
14.7782 0.971083
14.7805 1.00035
14.7829 1.00666
14.7852 1.03158
14.7876 1.00836
14.7899 0.99844
14.7923 0.987475
14.7946 0.963796
14.7969 0.973366
14.7993 0.99164
14.8016 1.01676
14.804 1.00213
14.8063 1.01058
14.8087 1.02849
14.811 1.05205
14.8134 1.01082
14.8157 0.957146
14.8181 0.978352
14.8204 0.981192
14.8227 0.992405
14.8251 1.00663
14.8274 0.952765
14.8298 0.974382
14.8321 0.975921
14.8345 0.983064
14.8368 0.988573
14.8392 0.998708
14.8415 1.01365
14.8439 1.0118
14.8462 1.0038
14.8485 1.03386
14.8509 1.01874
14.8532 0.980152
14.8556 0.948605
14.8579 1.00306
14.8603 1.02944
14.8626 1.03265
14.865 1.00476
14.8673 1.02403
14.8697 1.04249
14.872 0.999616
14.8743 0.991115
14.8767 1.04031
14.879 1.02269
14.8814 0.983935
14.8837 0.989277
14.8861 0.995746
14.8884 0.971172
14.8908 1.00404
14.8931 1.00031
14.8954 0.969162
14.8978 0.997784
14.9001 1.05067
14.9025 1.04451
14.9048 0.989009
14.9072 0.968137
14.9095 0.96557
14.9119 0.965657
14.9142 0.960687
14.9166 0.960408
14.9189 0.975558
14.9212 1.00373
14.9236 1.0548
14.9259 1.0592
14.9283 1.01411
14.9306 1.02527
14.933 1.00241
14.9353 0.973752
14.9377 1.00782
14.94 0.994255
14.9424 1.00335
14.9447 1.00684
14.947 1.02583
14.9494 0.992242
14.9517 0.983662
14.9541 0.997466
14.9564 1.01708
14.9588 1.01344
14.9611 1.03509
14.9635 1.02849
14.9658 0.995799
14.9682 1.01209
14.9705 1.04132
14.9728 1.00308
14.9752 0.986624
14.9775 0.963652
14.9799 0.933409
14.9822 0.946628
14.9846 0.928324
14.9869 0.946786
14.9893 0.998666
14.9916 1.00447
14.994 0.965221
14.9963 0.973837
14.9986 0.936605
