[DEFAULT]

version = diffpy.pdfgetx-2.2.1

# input and output specifications
dataformat = QA
inputfile = bf7_acc_r01.xyd
backgroundfiles = emptycap.xyd
outputtype = sq

# PDF calculation setup
mode = xray
composition = AlOOH
bgscales = 0.5
rpoly = 1.13
qmaxinst = 20.396
qmin = 0.406
qmax = 15
rmin = 0
rmax = 300
rstep = 0.01

# End of config --------------------------------------------------------------

#### start data
#S 1
#L Q(Ã…$^{-1}$)  S(a.u.)
0.408095 1.39207
0.41044 1.38336
0.412785 1.37623
0.415131 1.37136
0.417476 1.3636
0.419821 1.36074
0.422167 1.35527
0.424512 1.34867
0.426857 1.34219
0.429203 1.33654
0.431548 1.32956
0.433894 1.32502
0.436239 1.31989
0.438584 1.31374
0.44093 1.31101
0.443275 1.30173
0.44562 1.29663
0.447966 1.29311
0.450311 1.28891
0.452657 1.28386
0.455002 1.27871
0.457347 1.27341
0.459693 1.26868
0.462038 1.26442
0.464383 1.25845
0.466729 1.2521
0.469074 1.24806
0.47142 1.24565
0.473765 1.24379
0.47611 1.24129
0.478456 1.23997
0.480801 1.23779
0.483146 1.23388
0.485492 1.22827
0.487837 1.22315
0.490182 1.22033
0.492528 1.2166
0.494873 1.2126
0.497219 1.20933
0.499564 1.20692
0.501909 1.20497
0.504255 1.20268
0.5066 1.19974
0.508945 1.19623
0.511291 1.19352
0.513636 1.19203
0.515982 1.18923
0.518327 1.186
0.520672 1.18383
0.523018 1.18304
0.525363 1.17825
0.527708 1.17328
0.530054 1.17007
0.532399 1.16934
0.534745 1.16716
0.53709 1.16209
0.539435 1.16018
0.541781 1.15994
0.544126 1.15783
0.546471 1.15571
0.548817 1.15255
0.551162 1.14657
0.553507 1.14263
0.555853 1.14669
0.558198 1.14446
0.560544 1.1425
0.562889 1.1397
0.565234 1.13744
0.56758 1.13809
0.569925 1.13924
0.57227 1.13834
0.574616 1.13695
0.576961 1.13496
0.579307 1.13159
0.581652 1.13004
0.583997 1.1261
0.586343 1.12372
0.588688 1.12347
0.591033 1.12359
0.593379 1.12072
0.595724 1.12062
0.59807 1.11922
0.600415 1.11721
0.60276 1.11883
0.605106 1.11423
0.607451 1.11414
0.609796 1.11535
0.612142 1.11676
0.614487 1.11912
0.616832 1.11478
0.619178 1.1099
0.621523 1.10705
0.623869 1.10698
0.626214 1.10847
0.628559 1.10484
0.630905 1.10351
0.63325 1.10217
0.635595 1.10032
0.637941 1.09997
0.640286 1.10055
0.642632 1.10192
0.644977 1.10327
0.647322 1.10304
0.649668 1.0984
0.652013 1.10323
0.654358 1.10329
0.656704 1.10241
0.659049 1.10223
0.661395 1.09925
0.66374 1.09988
0.666085 1.1013
0.668431 1.10177
0.670776 1.10093
0.673121 1.10103
0.675467 1.09746
0.677812 1.09683
0.680158 1.09823
0.682503 1.09983
0.684848 1.09893
0.687194 1.10054
0.689539 1.10155
0.691884 1.10198
0.69423 1.10215
0.696575 1.10231
0.69892 1.10526
0.701266 1.10512
0.703611 1.10352
0.705957 1.10241
0.708302 1.10181
0.710647 1.10646
0.712993 1.10816
0.715338 1.10797
0.717683 1.10874
0.720029 1.11458
0.722374 1.11251
0.72472 1.11332
0.727065 1.11615
0.72941 1.11783
0.731756 1.11418
0.734101 1.11375
0.736446 1.11681
0.738792 1.1198
0.741137 1.11947
0.743483 1.11931
0.745828 1.12302
0.748173 1.12539
0.750519 1.12685
0.752864 1.12886
0.755209 1.1299
0.757555 1.13037
0.7599 1.13061
0.762245 1.13096
0.764591 1.13228
0.766936 1.13965
0.769282 1.14276
0.771627 1.1446
0.773972 1.14681
0.776318 1.15036
0.778663 1.15328
0.781008 1.15512
0.783354 1.15582
0.785699 1.15745
0.788045 1.16244
0.79039 1.16557
0.792735 1.16898
0.795081 1.17162
0.797426 1.17381
0.799771 1.17635
0.802117 1.17741
0.804462 1.18025
0.806808 1.18369
0.809153 1.18678
0.811498 1.18876
0.813844 1.19211
0.816189 1.19855
0.818534 1.20267
0.82088 1.20441
0.823225 1.20704
0.82557 1.21109
0.827916 1.21387
0.830261 1.21887
0.832607 1.22532
0.834952 1.22946
0.837297 1.23469
0.839643 1.23671
0.841988 1.23871
0.844333 1.24235
0.846679 1.24804
0.849024 1.25073
0.85137 1.25542
0.853715 1.26169
0.85606 1.26854
0.858406 1.27431
0.860751 1.27861
0.863096 1.28625
0.865442 1.28979
0.867787 1.28964
0.870133 1.29523
0.872478 1.29873
0.874823 1.30149
0.877169 1.3059
0.879514 1.3118
0.881859 1.31567
0.884205 1.32361
0.88655 1.33004
0.888896 1.3346
0.891241 1.33882
0.893586 1.34687
0.895932 1.35144
0.898277 1.35385
0.900622 1.35637
0.902968 1.36031
0.905313 1.3655
0.907658 1.37412
0.910004 1.3794
0.912349 1.38348
0.914695 1.38747
0.91704 1.38937
0.919385 1.39116
0.921731 1.39596
0.924076 1.40083
0.926421 1.40384
0.928767 1.40614
0.931112 1.41163
0.933458 1.41628
0.935803 1.41904
0.938148 1.41947
0.940494 1.41778
0.942839 1.42027
0.945184 1.42405
0.94753 1.42619
0.949875 1.42617
0.952221 1.43046
0.954566 1.43177
0.956911 1.42712
0.959257 1.42209
0.961602 1.42117
0.963947 1.42193
0.966293 1.4187
0.968638 1.41827
0.970983 1.41935
0.973329 1.41929
0.975674 1.41482
0.97802 1.40589
0.980365 1.40119
0.98271 1.39708
0.985056 1.3903
0.987401 1.38899
0.989746 1.37867
0.992092 1.37318
0.994437 1.3708
0.996783 1.36679
0.999128 1.35747
1.00147 1.35012
1.00382 1.34165
1.00616 1.33363
1.00851 1.32702
1.01085 1.31293
1.0132 1.306
1.01555 1.29968
1.01789 1.29131
1.02024 1.28076
1.02258 1.27806
1.02493 1.26793
1.02727 1.26072
1.02962 1.25294
1.03196 1.2386
1.03431 1.22486
1.03665 1.21814
1.039 1.20966
1.04134 1.19856
1.04369 1.18683
1.04604 1.17742
1.04838 1.16652
1.05073 1.15767
1.05307 1.14942
1.05542 1.1388
1.05776 1.12822
1.06011 1.11745
1.06245 1.10815
1.0648 1.10153
1.06714 1.09812
1.06949 1.09254
1.07183 1.08501
1.07418 1.07775
1.07653 1.07085
1.07887 1.06348
1.08122 1.05658
1.08356 1.05158
1.08591 1.04432
1.08825 1.03737
1.0906 1.03633
1.09294 1.03149
1.09529 1.02022
1.09763 1.0134
1.09998 1.01142
1.10232 1.00846
1.10467 1.00452
1.10701 0.999047
1.10936 0.995527
1.11171 0.992998
1.11405 0.987601
1.1164 0.984017
1.11874 0.976809
1.12109 0.971529
1.12343 0.968275
1.12578 0.963179
1.12812 0.963828
1.13047 0.961798
1.13281 0.957599
1.13516 0.952548
1.1375 0.948709
1.13985 0.94466
1.1422 0.941744
1.14454 0.938956
1.14689 0.9364
1.14923 0.935221
1.15158 0.929596
1.15392 0.926127
1.15627 0.923026
1.15861 0.920638
1.16096 0.921598
1.1633 0.915537
1.16565 0.912582
1.16799 0.909158
1.17034 0.905088
1.17269 0.904328
1.17503 0.900944
1.17738 0.899866
1.17972 0.899273
1.18207 0.897121
1.18441 0.891058
1.18676 0.890156
1.1891 0.886952
1.19145 0.885033
1.19379 0.885146
1.19614 0.883664
1.19848 0.878537
1.20083 0.877157
1.20318 0.876784
1.20552 0.87547
1.20787 0.872944
1.21021 0.872372
1.21256 0.872424
1.2149 0.871036
1.21725 0.8687
1.21959 0.87043
1.22194 0.865376
1.22428 0.860684
1.22663 0.860081
1.22897 0.863493
1.23132 0.864249
1.23366 0.861845
1.23601 0.860835
1.23836 0.859438
1.2407 0.856552
1.24305 0.853204
1.24539 0.850432
1.24774 0.848793
1.25008 0.84783
1.25243 0.847188
1.25477 0.846962
1.25712 0.843887
1.25946 0.842962
1.26181 0.84291
1.26415 0.842113
1.2665 0.839398
1.26885 0.837966
1.27119 0.838741
1.27354 0.839676
1.27588 0.839261
1.27823 0.838136
1.28057 0.836141
1.28292 0.8353
1.28526 0.834997
1.28761 0.834579
1.28995 0.834197
1.2923 0.832596
1.29464 0.830515
1.29699 0.827682
1.29934 0.825034
1.30168 0.827919
1.30403 0.827297
1.30637 0.825324
1.30872 0.825231
1.31106 0.827953
1.31341 0.826059
1.31575 0.823652
1.3181 0.822036
1.32044 0.822469
1.32279 0.824801
1.32513 0.823838
1.32748 0.820948
1.32983 0.818956
1.33217 0.817957
1.33452 0.817418
1.33686 0.816282
1.33921 0.816924
1.34155 0.815525
1.3439 0.815026
1.34624 0.817737
1.34859 0.817672
1.35093 0.812465
1.35328 0.80986
1.35562 0.810341
1.35797 0.812466
1.36032 0.813166
1.36266 0.814823
1.36501 0.814145
1.36735 0.811723
1.3697 0.809509
1.37204 0.811768
1.37439 0.813902
1.37673 0.81141
1.37908 0.807308
1.38142 0.805549
1.38377 0.804566
1.38611 0.805224
1.38846 0.805621
1.3908 0.806011
1.39315 0.807091
1.3955 0.808969
1.39784 0.806752
1.40019 0.806874
1.40253 0.808326
1.40488 0.808545
1.40722 0.808618
1.40957 0.806085
1.41191 0.803162
1.41426 0.801427
1.4166 0.80186
1.41895 0.802483
1.42129 0.802933
1.42364 0.802388
1.42599 0.800909
1.42833 0.799403
1.43068 0.802883
1.43302 0.802901
1.43537 0.800405
1.43771 0.798756
1.44006 0.800846
1.4424 0.798009
1.44475 0.799196
1.44709 0.799711
1.44944 0.800206
1.45178 0.802474
1.45413 0.801652
1.45648 0.799187
1.45882 0.798809
1.46117 0.798871
1.46351 0.79663
1.46586 0.798948
1.4682 0.800533
1.47055 0.800729
1.47289 0.798905
1.47524 0.795005
1.47758 0.793971
1.47993 0.794373
1.48227 0.795357
1.48462 0.795736
1.48697 0.794265
1.48931 0.790963
1.49166 0.789083
1.494 0.790955
1.49635 0.794953
1.49869 0.797494
1.50104 0.794549
1.50338 0.793495
1.50573 0.794267
1.50807 0.794113
1.51042 0.789726
1.51276 0.788139
1.51511 0.789255
1.51745 0.792721
1.5198 0.794495
1.52215 0.789777
1.52449 0.790262
1.52684 0.789856
1.52918 0.791351
1.53153 0.792995
1.53387 0.791294
1.53622 0.792096
1.53856 0.792009
1.54091 0.794678
1.54325 0.796871
1.5456 0.792606
1.54794 0.791721
1.55029 0.79183
1.55264 0.792199
1.55498 0.792074
1.55733 0.790801
1.55967 0.790239
1.56202 0.790148
1.56436 0.790107
1.56671 0.790719
1.56905 0.792734
1.5714 0.788819
1.57374 0.787241
1.57609 0.788463
1.57843 0.790241
1.58078 0.789113
1.58313 0.792012
1.58547 0.795352
1.58782 0.794042
1.59016 0.789754
1.59251 0.788194
1.59485 0.79062
1.5972 0.788275
1.59954 0.788125
1.60189 0.790551
1.60423 0.791871
1.60658 0.78919
1.60892 0.788069
1.61127 0.787736
1.61362 0.788995
1.61596 0.793258
1.61831 0.792989
1.62065 0.791839
1.623 0.789772
1.62534 0.78786
1.62769 0.787834
1.63003 0.788357
1.63238 0.790852
1.63472 0.79344
1.63707 0.794596
1.63941 0.793072
1.64176 0.790018
1.6441 0.791308
1.64645 0.792753
1.6488 0.792128
1.65114 0.788742
1.65349 0.790071
1.65583 0.791161
1.65818 0.790433
1.66052 0.789044
1.66287 0.789905
1.66521 0.789699
1.66756 0.794429
1.6699 0.798315
1.67225 0.798772
1.67459 0.795619
1.67694 0.796219
1.67929 0.795214
1.68163 0.796355
1.68398 0.798616
1.68632 0.79782
1.68867 0.799482
1.69101 0.802949
1.69336 0.801939
1.6957 0.797908
1.69805 0.797683
1.70039 0.798215
1.70274 0.802514
1.70508 0.80541
1.70743 0.805049
1.70978 0.802102
1.71212 0.802585
1.71447 0.803174
1.71681 0.802965
1.71916 0.801771
1.7215 0.800063
1.72385 0.802294
1.72619 0.803376
1.72854 0.806496
1.73088 0.808457
1.73323 0.801928
1.73557 0.80075
1.73792 0.805029
1.74027 0.808746
1.74261 0.809852
1.74496 0.809186
1.7473 0.809339
1.74965 0.80983
1.75199 0.811295
1.75434 0.81422
1.75668 0.818769
1.75903 0.818439
1.76137 0.819482
1.76372 0.820102
1.76606 0.82072
1.76841 0.823094
1.77075 0.819837
1.7731 0.817711
1.77545 0.821302
1.77779 0.827156
1.78014 0.826351
1.78248 0.826876
1.78483 0.829122
1.78717 0.832136
1.78952 0.833882
1.79186 0.831759
1.79421 0.83164
1.79655 0.838175
1.7989 0.842448
1.80124 0.843635
1.80359 0.84643
1.80594 0.850164
1.80828 0.855251
1.81063 0.856602
1.81297 0.85517
1.81532 0.856102
1.81766 0.861533
1.82001 0.868735
1.82235 0.873686
1.8247 0.876952
1.82704 0.881986
1.82939 0.883841
1.83173 0.886632
1.83408 0.891593
1.83643 0.897604
1.83877 0.902001
1.84112 0.905081
1.84346 0.911425
1.84581 0.916264
1.84815 0.919576
1.8505 0.924192
1.85284 0.926395
1.85519 0.930837
1.85753 0.941712
1.85988 0.953583
1.86222 0.95561
1.86457 0.960369
1.86692 0.969495
1.86926 0.979139
1.87161 0.987935
1.87395 0.995919
1.8763 1.0016
1.87864 1.0175
1.88099 1.02875
1.88333 1.03694
1.88568 1.05249
1.88802 1.06246
1.89037 1.07393
1.89271 1.08395
1.89506 1.09197
1.8974 1.09891
1.89975 1.10613
1.9021 1.12178
1.90444 1.13759
1.90679 1.15137
1.90913 1.164
1.91148 1.17224
1.91382 1.18142
1.91617 1.19437
1.91851 1.21112
1.92086 1.22975
1.9232 1.24398
1.92555 1.25854
1.92789 1.26877
1.93024 1.27819
1.93259 1.29378
1.93493 1.30801
1.93728 1.31343
1.93962 1.32512
1.94197 1.34153
1.94431 1.35367
1.94666 1.36611
1.949 1.37531
1.95135 1.38249
1.95369 1.38804
1.95604 1.39213
1.95838 1.39585
1.96073 1.39897
1.96308 1.40418
1.96542 1.4098
1.96777 1.41344
1.97011 1.42817
1.97246 1.42554
1.9748 1.42149
1.97715 1.41793
1.97949 1.41103
1.98184 1.3974
1.98418 1.39141
1.98653 1.38832
1.98887 1.38013
1.99122 1.3604
1.99357 1.35164
1.99591 1.34606
1.99826 1.33274
2.0006 1.31683
2.00295 1.30732
2.00529 1.28983
2.00764 1.2707
2.00998 1.25512
2.01233 1.23981
2.01467 1.21977
2.01702 1.20198
2.01936 1.18388
2.02171 1.16439
2.02405 1.14662
2.0264 1.13426
2.02875 1.12435
2.03109 1.11043
2.03344 1.09272
2.03578 1.07688
2.03813 1.06847
2.04047 1.0603
2.04282 1.04049
2.04516 1.02947
2.04751 1.02102
2.04985 1.00456
2.0522 0.992597
2.05454 0.982496
2.05689 0.970135
2.05924 0.958013
2.06158 0.949973
2.06393 0.947304
2.06627 0.937054
2.06862 0.92637
2.07096 0.916285
2.07331 0.906783
2.07565 0.900334
2.078 0.891185
2.08034 0.884676
2.08269 0.880748
2.08503 0.877115
2.08738 0.867078
2.08973 0.859981
2.09207 0.855665
2.09442 0.852397
2.09676 0.848175
2.09911 0.841547
2.10145 0.835572
2.1038 0.831263
2.10614 0.82713
2.10849 0.822303
2.11083 0.820548
2.11318 0.821976
2.11552 0.820566
2.11787 0.815378
2.12022 0.807938
2.12256 0.80516
2.12491 0.802893
2.12725 0.801472
2.1296 0.80098
2.13194 0.800614
2.13429 0.796739
2.13663 0.795685
2.13898 0.796541
2.14132 0.796579
2.14367 0.793111
2.14601 0.783932
2.14836 0.781338
2.1507 0.781912
2.15305 0.783761
2.1554 0.785008
2.15774 0.783329
2.16009 0.778261
2.16243 0.775636
2.16478 0.775477
2.16712 0.776489
2.16947 0.775805
2.17181 0.779326
2.17416 0.778803
2.1765 0.775596
2.17885 0.772042
2.18119 0.770591
2.18354 0.770884
2.18589 0.769131
2.18823 0.768281
2.19058 0.769746
2.19292 0.77087
2.19527 0.77067
2.19761 0.77227
2.19996 0.772492
2.2023 0.769875
2.20465 0.76665
2.20699 0.770539
2.20934 0.767141
2.21168 0.764294
2.21403 0.764803
2.21638 0.761428
2.21872 0.762814
2.22107 0.765217
2.22341 0.764605
2.22576 0.760442
2.2281 0.757169
2.23045 0.757753
2.23279 0.760836
2.23514 0.761861
2.23748 0.76019
2.23983 0.76033
2.24217 0.755222
2.24452 0.753471
2.24687 0.754431
2.24921 0.757363
2.25156 0.761641
2.2539 0.757492
2.25625 0.754599
2.25859 0.75077
2.26094 0.745619
2.26328 0.740718
2.26563 0.743794
2.26797 0.743634
2.27032 0.743088
2.27266 0.743189
2.27501 0.743345
2.27735 0.74487
2.2797 0.74177
2.28205 0.739517
2.28439 0.739655
2.28674 0.740616
2.28908 0.74152
2.29143 0.742521
2.29377 0.743373
2.29612 0.743335
2.29846 0.741535
2.30081 0.742046
2.30315 0.745723
2.3055 0.745867
2.30784 0.741866
2.31019 0.73731
2.31254 0.742804
2.31488 0.745221
2.31723 0.743181
2.31957 0.739525
2.32192 0.739061
2.32426 0.740482
2.32661 0.74016
2.32895 0.74283
2.3313 0.746296
2.33364 0.745811
2.33599 0.744311
2.33833 0.745646
2.34068 0.748094
2.34303 0.74797
2.34537 0.742229
2.34772 0.740156
2.35006 0.736371
2.35241 0.734483
2.35475 0.734735
2.3571 0.736182
2.35944 0.738259
2.36179 0.739213
2.36413 0.73819
2.36648 0.736892
2.36882 0.737565
2.37117 0.741017
2.37352 0.741481
2.37586 0.74146
2.37821 0.742166
2.38055 0.743644
2.3829 0.741662
2.38524 0.738574
2.38759 0.73672
2.38993 0.736119
2.39228 0.737044
2.39462 0.743221
2.39697 0.742547
2.39931 0.743512
2.40166 0.74453
2.404 0.742953
2.40635 0.738176
2.4087 0.741498
2.41104 0.741254
2.41339 0.74165
2.41573 0.745998
2.41808 0.748776
2.42042 0.741435
2.42277 0.739125
2.42511 0.739784
2.42746 0.741064
2.4298 0.744907
2.43215 0.744387
2.43449 0.748021
2.43684 0.748681
2.43919 0.743961
2.44153 0.74372
2.44388 0.747354
2.44622 0.751021
2.44857 0.755161
2.45091 0.75901
2.45326 0.759194
2.4556 0.756117
2.45795 0.758673
2.46029 0.761831
2.46264 0.761574
2.46498 0.756136
2.46733 0.758213
2.46968 0.760549
2.47202 0.764722
2.47437 0.769949
2.47671 0.772364
2.47906 0.768286
2.4814 0.771444
2.48375 0.771479
2.48609 0.768474
2.48844 0.773091
2.49078 0.772848
2.49313 0.774392
2.49547 0.77808
2.49782 0.781801
2.50017 0.781632
2.50251 0.784154
2.50486 0.789438
2.5072 0.793271
2.50955 0.79524
2.51189 0.797401
2.51424 0.797133
2.51658 0.809055
2.51893 0.816084
2.52127 0.817316
2.52362 0.820584
2.52596 0.824655
2.52831 0.830089
2.53066 0.835926
2.533 0.842253
2.53535 0.849165
2.53769 0.851945
2.54004 0.856864
2.54238 0.865793
2.54473 0.875532
2.54707 0.881472
2.54942 0.884109
2.55176 0.89385
2.55411 0.899322
2.55645 0.901836
2.5588 0.906582
2.56114 0.918067
2.56349 0.933324
2.56584 0.948869
2.56818 0.961233
2.57053 0.968387
2.57287 0.974502
2.57522 0.982658
2.57756 0.9935
2.57991 1.00718
2.58225 1.02182
2.5846 1.02854
2.58694 1.04674
2.58929 1.05763
2.59163 1.06734
2.59398 1.08171
2.59633 1.09467
2.59867 1.10413
2.60102 1.11841
2.60336 1.13742
2.60571 1.15832
2.60805 1.17431
2.6104 1.1879
2.61274 1.20426
2.61509 1.22044
2.61743 1.23512
2.61978 1.25122
2.62212 1.26767
2.62447 1.27997
2.62682 1.29501
2.62916 1.31615
2.63151 1.34071
2.63385 1.36329
2.6362 1.36906
2.63854 1.37598
2.64089 1.39082
2.64323 1.4057
2.64558 1.41918
2.64792 1.43695
2.65027 1.4494
2.65261 1.4529
2.65496 1.45015
2.65731 1.46543
2.65965 1.47051
2.662 1.47591
2.66434 1.48313
2.66669 1.48708
2.66903 1.49198
2.67138 1.48823
2.67372 1.48209
2.67607 1.477
2.67841 1.47444
2.68076 1.47063
2.6831 1.46563
2.68545 1.45182
2.68779 1.4337
2.69014 1.421
2.69249 1.41589
2.69483 1.39436
2.69718 1.37952
2.69952 1.37271
2.70187 1.36623
2.70421 1.34572
2.70656 1.32459
2.7089 1.30731
2.71125 1.29194
2.71359 1.27685
2.71594 1.27224
2.71828 1.24806
2.72063 1.2217
2.72298 1.20159
2.72532 1.18997
2.72767 1.17302
2.73001 1.15778
2.73236 1.14457
2.7347 1.13135
2.73705 1.11701
2.73939 1.10436
2.74174 1.09104
2.74408 1.07725
2.74643 1.06558
2.74877 1.05661
2.75112 1.04608
2.75347 1.03412
2.75581 1.02001
2.75816 1.01175
2.7605 1.00809
2.76285 0.990858
2.76519 0.978067
2.76754 0.96649
2.76988 0.955672
2.77223 0.947252
2.77457 0.945522
2.77692 0.940565
2.77926 0.930293
2.78161 0.921628
2.78396 0.91504
2.7863 0.904553
2.78865 0.903581
2.79099 0.901715
2.79334 0.892293
2.79568 0.881187
2.79803 0.882569
2.80037 0.873206
2.80272 0.867345
2.80506 0.861971
2.80741 0.856778
2.80975 0.852981
2.8121 0.851423
2.81444 0.845473
2.81679 0.841704
2.81914 0.838616
2.82148 0.831835
2.82383 0.823002
2.82617 0.820197
2.82852 0.819245
2.83086 0.81801
2.83321 0.815612
2.83555 0.815151
2.8379 0.810834
2.84024 0.810451
2.84259 0.808629
2.84493 0.800929
2.84728 0.800185
2.84963 0.795247
2.85197 0.790031
2.85432 0.785011
2.85666 0.7805
2.85901 0.778171
2.86135 0.774847
2.8637 0.776585
2.86604 0.779384
2.86839 0.779545
2.87073 0.776643
2.87308 0.773424
2.87542 0.769529
2.87777 0.766885
2.88012 0.766291
2.88246 0.76648
2.88481 0.769822
2.88715 0.766796
2.8895 0.763577
2.89184 0.762709
2.89419 0.761526
2.89653 0.759387
2.89888 0.748883
2.90122 0.746926
2.90357 0.753629
2.90591 0.754019
2.90826 0.758531
2.91061 0.758603
2.91295 0.76028
2.9153 0.761099
2.91764 0.754172
2.91999 0.75483
2.92233 0.751389
2.92468 0.750656
2.92702 0.753137
2.92937 0.755873
2.93171 0.75302
2.93406 0.752118
2.9364 0.756344
2.93875 0.759569
2.94109 0.755204
2.94344 0.754853
2.94579 0.75674
2.94813 0.75618
2.95048 0.754421
2.95282 0.753889
2.95517 0.755582
2.95751 0.754114
2.95986 0.747517
2.9622 0.746067
2.96455 0.753981
2.96689 0.75137
2.96924 0.749774
2.97158 0.747909
2.97393 0.745599
2.97628 0.743533
2.97862 0.744019
2.98097 0.749195
2.98331 0.748769
2.98566 0.745994
2.988 0.745151
2.99035 0.750749
2.99269 0.754028
2.99504 0.750695
2.99738 0.751212
2.99973 0.755763
3.00207 0.753234
3.00442 0.757664
3.00677 0.760692
3.00911 0.762276
3.01146 0.762333
3.0138 0.760763
3.01615 0.756854
3.01849 0.754264
3.02084 0.757285
3.02318 0.762824
3.02553 0.764035
3.02787 0.759244
3.03022 0.764145
3.03256 0.767803
3.03491 0.768017
3.03726 0.766936
3.0396 0.773313
3.04195 0.779238
3.04429 0.778694
3.04664 0.77583
3.04898 0.777006
3.05133 0.786093
3.05367 0.78791
3.05602 0.790527
3.05836 0.793641
3.06071 0.795744
3.06305 0.796008
3.0654 0.800092
3.06774 0.802168
3.07009 0.804414
3.07244 0.808979
3.07478 0.816267
3.07713 0.81765
3.07947 0.821119
3.08182 0.821584
3.08416 0.8191
3.08651 0.822011
3.08885 0.831242
3.0912 0.837066
3.09354 0.84068
3.09589 0.842787
3.09823 0.843455
3.10058 0.846214
3.10293 0.847262
3.10527 0.849304
3.10762 0.852783
3.10996 0.856821
3.11231 0.865313
3.11465 0.874529
3.117 0.876974
3.11934 0.875215
3.12169 0.876514
3.12403 0.886137
3.12638 0.890656
3.12872 0.894687
3.13107 0.897489
3.13342 0.897698
3.13576 0.899146
3.13811 0.907633
3.14045 0.915336
3.1428 0.917754
3.14514 0.915218
3.14749 0.921739
3.14983 0.925426
3.15218 0.921546
3.15452 0.919972
3.15687 0.925526
3.15921 0.927601
3.16156 0.934583
3.16391 0.930003
3.16625 0.92743
3.1686 0.932712
3.17094 0.937035
3.17329 0.941151
3.17563 0.938756
3.17798 0.939945
3.18032 0.94427
3.18267 0.940528
3.18501 0.940569
3.18736 0.943527
3.1897 0.951458
3.19205 0.95857
3.19439 0.954672
3.19674 0.945417
3.19909 0.940647
3.20143 0.939357
3.20378 0.939979
3.20612 0.941811
3.20847 0.95469
3.21081 0.959575
3.21316 0.957676
3.2155 0.956737
3.21785 0.962997
3.22019 0.965535
3.22254 0.972162
3.22488 0.980491
3.22723 0.986039
3.22958 0.987411
3.23192 0.993637
3.23427 1.00283
3.23661 1.01002
3.23896 1.01861
3.2413 1.02897
3.24365 1.03373
3.24599 1.0393
3.24834 1.04237
3.25068 1.04898
3.25303 1.05842
3.25537 1.06088
3.25772 1.07566
3.26007 1.08814
3.26241 1.10182
3.26476 1.11748
3.2671 1.13321
3.26945 1.14098
3.27179 1.15606
3.27414 1.16684
3.27648 1.17579
3.27883 1.19145
3.28117 1.20311
3.28352 1.22148
3.28586 1.23692
3.28821 1.24888
3.29056 1.26022
3.2929 1.27413
3.29525 1.29619
3.29759 1.31569
3.29994 1.33658
3.30228 1.36075
3.30463 1.37172
3.30697 1.38053
3.30932 1.39196
3.31166 1.41185
3.31401 1.43823
3.31635 1.45232
3.3187 1.48485
3.32104 1.50811
3.32339 1.52868
3.32574 1.55014
3.32808 1.5689
3.33043 1.59907
3.33277 1.62128
3.33512 1.64598
3.33746 1.67825
3.33981 1.71754
3.34215 1.75639
3.3445 1.78173
3.34684 1.80898
3.34919 1.84455
3.35153 1.88792
3.35388 1.92151
3.35623 1.96914
3.35857 2.01254
3.36092 2.05037
3.36326 2.08483
3.36561 2.10274
3.36795 2.14447
3.3703 2.19039
3.37264 2.2234
3.37499 2.24121
3.37733 2.28804
3.37968 2.32318
3.38202 2.35519
3.38437 2.37546
3.38672 2.38198
3.38906 2.38919
3.39141 2.37353
3.39375 2.3723
3.3961 2.35168
3.39844 2.30936
3.40079 2.28618
3.40313 2.25574
3.40548 2.20738
3.40782 2.15316
3.41017 2.09893
3.41251 2.04498
3.41486 1.98555
3.41721 1.93496
3.41955 1.86763
3.4219 1.79854
3.42424 1.75469
3.42659 1.69708
3.42893 1.63376
3.43128 1.58787
3.43362 1.54758
3.43597 1.4981
3.43831 1.45888
3.44066 1.41752
3.443 1.3867
3.44535 1.35844
3.44769 1.32605
3.45004 1.29559
3.45239 1.27529
3.45473 1.25071
3.45708 1.22427
3.45942 1.19901
3.46177 1.17672
3.46411 1.1662
3.46646 1.15868
3.4688 1.14804
3.47115 1.13391
3.47349 1.1215
3.47584 1.11759
3.47818 1.10452
3.48053 1.09357
3.48288 1.0872
3.48522 1.08223
3.48757 1.07265
3.48991 1.0696
3.49226 1.06355
3.4946 1.05611
3.49695 1.05177
3.49929 1.04978
3.50164 1.04879
3.50398 1.04428
3.50633 1.04145
3.50867 1.04442
3.51102 1.0485
3.51337 1.0457
3.51571 1.04421
3.51806 1.04193
3.5204 1.0381
3.52275 1.03615
3.52509 1.03954
3.52744 1.04566
3.52978 1.04652
3.53213 1.04231
3.53447 1.04164
3.53682 1.03845
3.53916 1.02641
3.54151 1.02053
3.54386 1.02021
3.5462 1.01553
3.54855 1.00438
3.55089 0.995066
3.55324 0.986451
3.55558 0.97415
3.55793 0.956178
3.56027 0.949751
3.56262 0.948251
3.56496 0.944033
3.56731 0.936629
3.56965 0.926805
3.572 0.914234
3.57434 0.911328
3.57669 0.902516
3.57904 0.892645
3.58138 0.884667
3.58373 0.874787
3.58607 0.862723
3.58842 0.85948
3.59076 0.855047
3.59311 0.848319
3.59545 0.847285
3.5978 0.840478
3.60014 0.838236
3.60249 0.835003
3.60483 0.832167
3.60718 0.833733
3.60953 0.828836
3.61187 0.823604
3.61422 0.818189
3.61656 0.814233
3.61891 0.813449
3.62125 0.815895
3.6236 0.811719
3.62594 0.808567
3.62829 0.807374
3.63063 0.807961
3.63298 0.810546
3.63532 0.815357
3.63767 0.812492
3.64002 0.806509
3.64236 0.801466
3.64471 0.798744
3.64705 0.804994
3.6494 0.81681
3.65174 0.819642
3.65409 0.813655
3.65643 0.811608
3.65878 0.820386
3.66112 0.820774
3.66347 0.818857
3.66581 0.817392
3.66816 0.818291
3.67051 0.829359
3.67285 0.8304
3.6752 0.835391
3.67754 0.839285
3.67989 0.836894
3.68223 0.840868
3.68458 0.844898
3.68692 0.853854
3.68927 0.865517
3.69161 0.874925
3.69396 0.873644
3.6963 0.875473
3.69865 0.883696
3.70099 0.886263
3.70334 0.88369
3.70569 0.890839
3.70803 0.898668
3.71038 0.90556
3.71272 0.914993
3.71507 0.926871
3.71741 0.938012
3.71976 0.936991
3.7221 0.937534
3.72445 0.94923
3.72679 0.962357
3.72914 0.964256
3.73148 0.960983
3.73383 0.960183
3.73618 0.964672
3.73852 0.972521
3.74087 0.981665
3.74321 0.992295
3.74556 0.993948
3.7479 1.00555
3.75025 1.01288
3.75259 1.0106
3.75494 1.0088
3.75728 1.00752
3.75963 1.01241
3.76197 1.01601
3.76432 1.02135
3.76667 1.03703
3.76901 1.03388
3.77136 1.02861
3.7737 1.02351
3.77605 1.02343
3.77839 1.0313
3.78074 1.03359
3.78308 1.03258
3.78543 1.02873
3.78777 1.02356
3.79012 1.01934
3.79246 1.01959
3.79481 1.01222
3.79716 1.01305
3.7995 1.01288
3.80185 1.00797
3.80419 1.00647
3.80654 0.994886
3.80888 0.982376
3.81123 0.974602
3.81357 0.974336
3.81592 0.980503
3.81826 0.97008
3.82061 0.961358
3.82295 0.957503
3.8253 0.954947
3.82765 0.948199
3.82999 0.939146
3.83234 0.922616
3.83468 0.919292
3.83703 0.919103
3.83937 0.912001
3.84172 0.909812
3.84406 0.894421
3.84641 0.893901
3.84875 0.899943
3.8511 0.900204
3.85344 0.88233
3.85579 0.879831
3.85813 0.879051
3.86048 0.876559
3.86283 0.872472
3.86517 0.869408
3.86752 0.861966
3.86986 0.858981
3.87221 0.859381
3.87455 0.85796
3.8769 0.849638
3.87924 0.84104
3.88159 0.845541
3.88393 0.845877
3.88628 0.841537
3.88862 0.835451
3.89097 0.829449
3.89332 0.824334
3.89566 0.81594
3.89801 0.810386
3.90035 0.809614
3.9027 0.808095
3.90504 0.798989
3.90739 0.796163
3.90973 0.801976
3.91208 0.809106
3.91442 0.804456
3.91677 0.797072
3.91911 0.793703
3.92146 0.796112
3.92381 0.799164
3.92615 0.797064
3.9285 0.795666
3.93084 0.790067
3.93319 0.791098
3.93553 0.796365
3.93788 0.800268
3.94022 0.795869
3.94257 0.794603
3.94491 0.799346
3.94726 0.803392
3.9496 0.801869
3.95195 0.793614
3.9543 0.798613
3.95664 0.797547
3.95899 0.79178
3.96133 0.790448
3.96368 0.803717
3.96602 0.800744
3.96837 0.799498
3.97071 0.798913
3.97306 0.799551
3.9754 0.801602
3.97775 0.801625
3.98009 0.808164
3.98244 0.808007
3.98478 0.80503
3.98713 0.804463
3.98948 0.808935
3.99182 0.81204
3.99417 0.815235
3.99651 0.813607
3.99886 0.808519
4.0012 0.807723
4.00355 0.813621
4.00589 0.810507
4.00824 0.814108
4.01058 0.820694
4.01293 0.819198
4.01527 0.818778
4.01762 0.821362
4.01997 0.819351
4.02231 0.81753
4.02466 0.821003
4.027 0.826567
4.02935 0.82598
4.03169 0.829189
4.03404 0.831443
4.03638 0.830838
4.03873 0.83178
4.04107 0.833521
4.04342 0.842303
4.04576 0.844404
4.04811 0.836307
4.05046 0.824373
4.0528 0.835946
4.05515 0.842449
4.05749 0.840773
4.05984 0.837234
4.06218 0.839152
4.06453 0.84232
4.06687 0.845019
4.06922 0.848351
4.07156 0.853795
4.07391 0.8595
4.07625 0.856725
4.0786 0.847905
4.08095 0.844142
4.08329 0.845273
4.08564 0.847907
4.08798 0.846349
4.09033 0.841501
4.09267 0.842715
4.09502 0.847631
4.09736 0.851742
4.09971 0.85135
4.10205 0.854733
4.1044 0.844541
4.10674 0.840586
4.10909 0.844402
4.11143 0.850859
4.11378 0.848383
4.11613 0.852822
4.11847 0.849524
4.12082 0.841963
4.12316 0.834309
4.12551 0.82945
4.12785 0.83591
4.1302 0.834345
4.13254 0.83267
4.13489 0.832636
4.13723 0.831948
4.13958 0.829044
4.14192 0.827277
4.14427 0.828931
4.14662 0.829362
4.14896 0.825532
4.15131 0.82728
4.15365 0.82095
4.156 0.82314
4.15834 0.820966
4.16069 0.813624
4.16303 0.824489
4.16538 0.82451
4.16772 0.828521
4.17007 0.830167
4.17241 0.830189
4.17476 0.833768
4.17711 0.829392
4.17945 0.823819
4.1818 0.819998
4.18414 0.822553
4.18649 0.833591
4.18883 0.843179
4.19118 0.846021
4.19352 0.840694
4.19587 0.835663
4.19821 0.835637
4.20056 0.835455
4.2029 0.838512
4.20525 0.849413
4.2076 0.856332
4.20994 0.859307
4.21229 0.867654
4.21463 0.862219
4.21698 0.866098
4.21932 0.876227
4.22167 0.885083
4.22401 0.886886
4.22636 0.893079
4.2287 0.907841
4.23105 0.911406
4.23339 0.912568
4.23574 0.920973
4.23808 0.937878
4.24043 0.94372
4.24278 0.95711
4.24512 0.975466
4.24747 0.993219
4.24981 1.00389
4.25216 1.0156
4.2545 1.02649
4.25685 1.04189
4.25919 1.05795
4.26154 1.06926
4.26388 1.08347
4.26623 1.10428
4.26857 1.1291
4.27092 1.15375
4.27327 1.17381
4.27561 1.1851
4.27796 1.21842
4.2803 1.25196
4.28265 1.27828
4.28499 1.29931
4.28734 1.32377
4.28968 1.32489
4.29203 1.35141
4.29437 1.37864
4.29672 1.39847
4.29906 1.41402
4.30141 1.44763
4.30376 1.45898
4.3061 1.49024
4.30845 1.52084
4.31079 1.53315
4.31314 1.53929
4.31548 1.55658
4.31783 1.58974
4.32017 1.61503
4.32252 1.62877
4.32486 1.64661
4.32721 1.6598
4.32955 1.68433
4.3319 1.69881
4.33425 1.71401
4.33659 1.74309
4.33894 1.74441
4.34128 1.76967
4.34363 1.78544
4.34597 1.79431
4.34832 1.8058
4.35066 1.83082
4.35301 1.84528
4.35535 1.86841
4.3577 1.89871
4.36004 1.92529
4.36239 1.93387
4.36473 1.96361
4.36708 1.97573
4.36943 1.98629
4.37177 1.99563
4.37412 1.99784
4.37646 1.98486
4.37881 1.95074
4.38115 1.91426
4.3835 1.87951
4.38584 1.84102
4.38819 1.78089
4.39053 1.70977
4.39288 1.64576
4.39522 1.58868
4.39757 1.53701
4.39992 1.48882
4.40226 1.44688
4.40461 1.41151
4.40695 1.37283
4.4093 1.3323
4.41164 1.2979
4.41399 1.2882
4.41633 1.26499
4.41868 1.2422
4.42102 1.2282
4.42337 1.22027
4.42571 1.20134
4.42806 1.19468
4.43041 1.18846
4.43275 1.18409
4.4351 1.18501
4.43744 1.19325
4.43979 1.19115
4.44213 1.18192
4.44448 1.17546
4.44682 1.17613
4.44917 1.18305
4.45151 1.1853
4.45386 1.18821
4.4562 1.19853
4.45855 1.20469
4.4609 1.20409
4.46324 1.20595
4.46559 1.21063
4.46793 1.21747
4.47028 1.22418
4.47262 1.2272
4.47497 1.22493
4.47731 1.22928
4.47966 1.22809
4.482 1.22404
4.48435 1.22247
4.48669 1.22606
4.48904 1.23098
4.49138 1.2262
4.49373 1.22054
4.49608 1.21401
4.49842 1.21096
4.50077 1.21742
4.50311 1.2095
4.50546 1.20402
4.5078 1.19382
4.51015 1.18224
4.51249 1.17445
4.51484 1.16823
4.51718 1.15461
4.51953 1.14388
4.52187 1.13248
4.52422 1.12299
4.52657 1.1289
4.52891 1.13753
4.53126 1.12801
4.5336 1.1092
4.53595 1.09327
4.53829 1.09076
4.54064 1.08922
4.54298 1.09046
4.54533 1.08976
4.54767 1.08493
4.55002 1.07608
4.55236 1.0672
4.55471 1.06193
4.55706 1.05001
4.5594 1.04754
4.56175 1.05252
4.56409 1.04426
4.56644 1.02976
4.56878 1.02756
4.57113 1.01923
4.57347 1.00985
4.57582 1.01054
4.57816 1.01532
4.58051 1.00913
4.58285 1.0024
4.5852 0.997491
4.58755 0.992655
4.58989 0.981563
4.59224 0.988862
4.59458 0.993907
4.59693 0.985234
4.59927 0.970623
4.60162 0.968053
4.60396 0.97314
4.60631 0.969062
4.60865 0.963682
4.611 0.962903
4.61334 0.967637
4.61569 0.967288
4.61803 0.958348
4.62038 0.95373
4.62273 0.951455
4.62507 0.953391
4.62742 0.964669
4.62976 0.960798
4.63211 0.961525
4.63445 0.963866
4.6368 0.96209
4.63914 0.954342
4.64149 0.959332
4.64383 0.9626
4.64618 0.954536
4.64852 0.955072
4.65087 0.968998
4.65322 0.972278
4.65556 0.963184
4.65791 0.972279
4.66025 0.990693
4.6626 1.00203
4.66494 0.994404
4.66729 1.01421
4.66963 1.02146
4.67198 1.0306
4.67432 1.03766
4.67667 1.03999
4.67901 1.04697
4.68136 1.06323
4.68371 1.0704
4.68605 1.07623
4.6884 1.08446
4.69074 1.09375
4.69309 1.10042
4.69543 1.10987
4.69778 1.12548
4.70012 1.14632
4.70247 1.16946
4.70481 1.19101
4.70716 1.20379
4.7095 1.21827
4.71185 1.22677
4.7142 1.23629
4.71654 1.27098
4.71889 1.28277
4.72123 1.30127
4.72358 1.31764
4.72592 1.33412
4.72827 1.35767
4.73061 1.39242
4.73296 1.40232
4.7353 1.41882
4.73765 1.44151
4.73999 1.46823
4.74234 1.50216
4.74468 1.51223
4.74703 1.52862
4.74938 1.54802
4.75172 1.56966
4.75407 1.59313
4.75641 1.6071
4.75876 1.62905
4.7611 1.64742
4.76345 1.66753
4.76579 1.69426
4.76814 1.72294
4.77048 1.73637
4.77283 1.75286
4.77517 1.76204
4.77752 1.76907
4.77987 1.78867
4.78221 1.78579
4.78456 1.78794
4.7869 1.79346
4.78925 1.7974
4.79159 1.79612
4.79394 1.79286
4.79628 1.79673
4.79863 1.79634
4.80097 1.78459
4.80332 1.76224
4.80566 1.73721
4.80801 1.7017
4.81036 1.67141
4.8127 1.66236
4.81505 1.64901
4.81739 1.6058
4.81974 1.56864
4.82208 1.55291
4.82443 1.52197
4.82677 1.48345
4.82912 1.44875
4.83146 1.42595
4.83381 1.39499
4.83615 1.36922
4.8385 1.33746
4.84085 1.3029
4.84319 1.27483
4.84554 1.2579
4.84788 1.22991
4.85023 1.20752
4.85257 1.1849
4.85492 1.16042
4.85726 1.14392
4.85961 1.11251
4.86195 1.09879
4.8643 1.07575
4.86664 1.04919
4.86899 1.03985
4.87133 1.04094
4.87368 1.02433
4.87603 1.00113
4.87837 0.979482
4.88072 0.965397
4.88306 0.961288
4.88541 0.954736
4.88775 0.942187
4.8901 0.931865
4.89244 0.924336
4.89479 0.915325
4.89713 0.905601
4.89948 0.889092
4.90182 0.875695
4.90417 0.872751
4.90652 0.878229
4.90886 0.872632
4.91121 0.854334
4.91355 0.843098
4.9159 0.83719
4.91824 0.835602
4.92059 0.837676
4.92293 0.836671
4.92528 0.837444
4.92762 0.831613
4.92997 0.826701
4.93231 0.827019
4.93466 0.820112
4.93701 0.807414
4.93935 0.79972
4.9417 0.794673
4.94404 0.790059
4.94639 0.785581
4.94873 0.793093
4.95108 0.791605
4.95342 0.791777
4.95577 0.793754
4.95811 0.793997
4.96046 0.787172
4.9628 0.782434
4.96515 0.782811
4.9675 0.781939
4.96984 0.778064
4.97219 0.773095
4.97453 0.757698
4.97688 0.767022
4.97922 0.768961
4.98157 0.768243
4.98391 0.77253
4.98626 0.76893
4.9886 0.759495
4.99095 0.758374
4.99329 0.764034
4.99564 0.770647
4.99799 0.771058
5.00033 0.772669
5.00268 0.77016
5.00502 0.768878
5.00737 0.766061
5.00971 0.760113
5.01206 0.758694
5.0144 0.754759
5.01675 0.756985
5.01909 0.761704
5.02144 0.763818
5.02378 0.760297
5.02613 0.774089
5.02847 0.765214
5.03082 0.753236
5.03317 0.749995
5.03551 0.758
5.03786 0.762185
5.0402 0.766032
5.04255 0.7705
5.04489 0.769266
5.04724 0.763029
5.04958 0.758826
5.05193 0.762129
5.05427 0.760596
5.05662 0.765904
5.05896 0.773693
5.06131 0.776255
5.06366 0.76924
5.066 0.765143
5.06835 0.763175
5.07069 0.763519
5.07304 0.765512
5.07538 0.767343
5.07773 0.762654
5.08007 0.764177
5.08242 0.762942
5.08476 0.761677
5.08711 0.766618
5.08945 0.784772
5.0918 0.786827
5.09415 0.783592
5.09649 0.786068
5.09884 0.791258
5.10118 0.787991
5.10353 0.785347
5.10587 0.783059
5.10822 0.783085
5.11056 0.78651
5.11291 0.79394
5.11525 0.80558
5.1176 0.803184
5.11994 0.795347
5.12229 0.796016
5.12464 0.805805
5.12698 0.814086
5.12933 0.798655
5.13167 0.813102
5.13402 0.821438
5.13636 0.821475
5.13871 0.817293
5.14105 0.811789
5.1434 0.825329
5.14574 0.825329
5.14809 0.822919
5.15043 0.830867
5.15278 0.853418
5.15512 0.848949
5.15747 0.859855
5.15982 0.863704
5.16216 0.865351
5.16451 0.869645
5.16685 0.874431
5.1692 0.877831
5.17154 0.890084
5.17389 0.891739
5.17623 0.891483
5.17858 0.903999
5.18092 0.90862
5.18327 0.911127
5.18561 0.901842
5.18796 0.896083
5.19031 0.901043
5.19265 0.909365
5.195 0.918298
5.19734 0.920723
5.19969 0.92306
5.20203 0.924645
5.20438 0.925007
5.20672 0.934086
5.20907 0.930636
5.21141 0.926841
5.21376 0.926674
5.2161 0.926437
5.21845 0.917945
5.2208 0.92519
5.22314 0.920507
5.22549 0.91638
5.22783 0.916164
5.23018 0.918622
5.23252 0.918514
5.23487 0.915527
5.23721 0.917189
5.23956 0.918237
5.2419 0.916678
5.24425 0.914861
5.24659 0.92343
5.24894 0.918147
5.25129 0.91315
5.25363 0.916533
5.25598 0.927722
5.25832 0.932684
5.26067 0.927184
5.26301 0.927358
5.26536 0.938204
5.2677 0.949092
5.27005 0.945723
5.27239 0.944213
5.27474 0.943972
5.27708 0.946203
5.27943 0.947726
5.28177 0.948496
5.28412 0.953609
5.28647 0.95372
5.28881 0.948377
5.29116 0.948878
5.2935 0.951715
5.29585 0.952441
5.29819 0.969054
5.30054 0.980045
5.30288 0.977821
5.30523 0.976612
5.30757 0.97973
5.30992 0.977504
5.31226 0.979918
5.31461 0.989993
5.31696 0.998248
5.3193 1.00487
5.32165 1.01299
5.32399 1.02512
5.32634 1.01294
5.32868 1.01087
5.33103 1.01144
5.33337 1.01472
5.33572 1.02482
5.33806 1.02208
5.34041 1.02672
5.34275 1.02726
5.3451 1.02456
5.34745 1.0215
5.34979 1.01967
5.35214 1.02174
5.35448 1.01657
5.35683 1.01676
5.35917 1.02213
5.36152 1.0237
5.36386 1.00519
5.36621 1.00058
5.36855 0.995773
5.3709 0.996123
5.37324 1.00487
5.37559 1.01829
5.37794 1.00406
5.38028 0.99825
5.38263 0.997159
5.38497 1.00034
5.38732 1.00541
5.38966 1.00234
5.39201 1.00226
5.39435 0.993555
5.3967 0.980795
5.39904 0.973287
5.40139 0.978897
5.40373 0.977483
5.40608 0.984297
5.40842 0.998284
5.41077 1.0037
5.41312 0.994491
5.41546 0.985932
5.41781 0.985031
5.42015 0.977223
5.4225 0.977353
5.42484 0.976902
5.42719 0.9638
5.42953 0.958992
5.43188 0.952115
5.43422 0.953363
5.43657 0.95561
5.43891 0.953335
5.44126 0.947066
5.44361 0.962001
5.44595 0.956413
5.4483 0.955436
5.45064 0.953154
5.45299 0.944019
5.45533 0.94448
5.45768 0.951281
5.46002 0.956089
5.46237 0.960629
5.46471 0.960644
5.46706 0.95274
5.4694 0.96067
5.47175 0.957295
5.4741 0.961998
5.47644 0.971772
5.47879 0.979924
5.48113 0.981036
5.48348 0.987971
5.48582 1.00373
5.48817 1.02491
5.49051 1.04543
5.49286 1.0618
5.4952 1.08097
5.49755 1.10214
5.49989 1.12592
5.50224 1.14607
5.50459 1.16333
5.50693 1.18552
5.50928 1.22919
5.51162 1.25912
5.51397 1.30216
5.51631 1.34358
5.51866 1.3707
5.521 1.38918
5.52335 1.4305
5.52569 1.46077
5.52804 1.48049
5.53038 1.50944
5.53273 1.55422
5.53507 1.54759
5.53742 1.54783
5.53977 1.54516
5.54211 1.54375
5.54446 1.54486
5.5468 1.54406
5.54915 1.51971
5.55149 1.49851
5.55384 1.47004
5.55618 1.43089
5.55853 1.38702
5.56087 1.35617
5.56322 1.29701
5.56556 1.27312
5.56791 1.25528
5.57026 1.22488
5.5726 1.18305
5.57495 1.17913
5.57729 1.16636
5.57964 1.14743
5.58198 1.13024
5.58433 1.11339
5.58667 1.08906
5.58902 1.08022
5.59136 1.07335
5.59371 1.07062
5.59605 1.05806
5.5984 1.03554
5.60075 1.03386
5.60309 1.04393
5.60544 1.03676
5.60778 1.02606
5.61013 1.02375
5.61247 1.03347
5.61482 1.0349
5.61716 1.02554
5.61951 1.01914
5.62185 1.01754
5.6242 1.01548
5.62654 1.00457
5.62889 0.997586
5.63124 1.00736
5.63358 1.00204
5.63593 0.989896
5.63827 0.979656
5.64062 0.96366
5.64296 0.955661
5.64531 0.938316
5.64765 0.924721
5.65 0.917285
5.65234 0.911941
5.65469 0.901851
5.65703 0.889524
5.65938 0.884891
5.66172 0.873835
5.66407 0.8597
5.66642 0.858065
5.66876 0.848105
5.67111 0.840499
5.67345 0.833818
5.6758 0.821091
5.67814 0.801551
5.68049 0.785421
5.68283 0.777732
5.68518 0.782794
5.68752 0.785409
5.68987 0.78694
5.69221 0.791731
5.69456 0.792148
5.69691 0.776475
5.69925 0.772266
5.7016 0.772151
5.70394 0.768001
5.70629 0.755977
5.70863 0.748881
5.71098 0.756054
5.71332 0.764917
5.71567 0.767386
5.71801 0.761505
5.72036 0.752881
5.7227 0.754994
5.72505 0.752994
5.7274 0.747738
5.72974 0.747347
5.73209 0.751503
5.73443 0.736325
5.73678 0.740815
5.73912 0.746446
5.74147 0.748477
5.74381 0.747577
5.74616 0.746678
5.7485 0.744573
5.75085 0.743055
5.75319 0.740593
5.75554 0.734535
5.75789 0.727917
5.76023 0.727853
5.76258 0.727412
5.76492 0.716403
5.76727 0.713815
5.76961 0.716425
5.77196 0.718978
5.7743 0.722142
5.77665 0.721168
5.77899 0.718824
5.78134 0.716773
5.78368 0.716894
5.78603 0.719896
5.78837 0.723146
5.79072 0.724146
5.79307 0.718624
5.79541 0.714655
5.79776 0.714594
5.8001 0.715623
5.80245 0.713985
5.80479 0.709198
5.80714 0.709706
5.80948 0.711114
5.81183 0.70924
5.81417 0.704196
5.81652 0.715236
5.81886 0.711358
5.82121 0.708025
5.82356 0.708974
5.8259 0.709331
5.82825 0.695535
5.83059 0.701973
5.83294 0.712823
5.83528 0.717885
5.83763 0.715675
5.83997 0.709532
5.84232 0.703078
5.84466 0.712154
5.84701 0.710662
5.84935 0.707312
5.8517 0.70563
5.85405 0.704311
5.85639 0.710392
5.85874 0.712214
5.86108 0.711564
5.86343 0.706528
5.86577 0.702495
5.86812 0.711757
5.87046 0.721383
5.87281 0.729793
5.87515 0.728941
5.8775 0.723914
5.87984 0.722606
5.88219 0.72985
5.88454 0.727082
5.88688 0.726439
5.88923 0.732366
5.89157 0.744944
5.89392 0.759002
5.89626 0.760575
5.89861 0.759407
5.90095 0.752913
5.9033 0.755638
5.90564 0.764476
5.90799 0.765847
5.91033 0.763328
5.91268 0.76136
5.91502 0.764378
5.91737 0.769469
5.91972 0.771411
5.92206 0.766469
5.92441 0.776006
5.92675 0.784392
5.9291 0.785489
5.93144 0.783927
5.93379 0.784558
5.93613 0.787704
5.93848 0.792848
5.94082 0.797143
5.94317 0.802601
5.94551 0.807299
5.94786 0.807577
5.95021 0.799524
5.95255 0.808247
5.9549 0.81745
5.95724 0.821288
5.95959 0.819592
5.96193 0.816365
5.96428 0.818267
5.96662 0.81778
5.96897 0.826829
5.97131 0.826895
5.97366 0.818551
5.976 0.818465
5.97835 0.823013
5.9807 0.831315
5.98304 0.842834
5.98539 0.846257
5.98773 0.847784
5.99008 0.871699
5.99242 0.875805
5.99477 0.861709
5.99711 0.85616
5.99946 0.85693
6.0018 0.859333
6.00415 0.868541
6.00649 0.864366
6.00884 0.878265
6.01119 0.879774
6.01353 0.870836
6.01588 0.865768
6.01822 0.873147
6.02057 0.880349
6.02291 0.881739
6.02526 0.877908
6.0276 0.876225
6.02995 0.883024
6.03229 0.886936
6.03464 0.878214
6.03698 0.869793
6.03933 0.867739
6.04167 0.870776
6.04402 0.872801
6.04637 0.872935
6.04871 0.873532
6.05106 0.875204
6.0534 0.876619
6.05575 0.87859
6.05809 0.883642
6.06044 0.88372
6.06278 0.873225
6.06513 0.887635
6.06747 0.911613
6.06982 0.923187
6.07216 0.913576
6.07451 0.920612
6.07686 0.924388
6.0792 0.923219
6.08155 0.91482
6.08389 0.903581
6.08624 0.906796
6.08858 0.923414
6.09093 0.914215
6.09327 0.912672
6.09562 0.919065
6.09796 0.919677
6.10031 0.910758
6.10265 0.912182
6.105 0.919049
6.10735 0.926744
6.10969 0.928164
6.11204 0.920767
6.11438 0.925008
6.11673 0.909155
6.11907 0.911015
6.12142 0.921775
6.12376 0.929134
6.12611 0.926043
6.12845 0.925952
6.1308 0.921636
6.13314 0.919145
6.13549 0.925093
6.13784 0.935098
6.14018 0.935005
6.14253 0.927624
6.14487 0.916015
6.14722 0.90716
6.14956 0.905132
6.15191 0.90743
6.15425 0.904456
6.1566 0.897417
6.15894 0.888068
6.16129 0.883233
6.16363 0.875434
6.16598 0.862777
6.16832 0.860118
6.17067 0.865731
6.17302 0.863285
6.17536 0.857722
6.17771 0.858352
6.18005 0.868891
6.1824 0.877289
6.18474 0.859079
6.18709 0.852536
6.18943 0.840921
6.19178 0.827702
6.19412 0.824146
6.19647 0.832006
6.19881 0.828002
6.20116 0.827116
6.20351 0.826484
6.20585 0.822758
6.2082 0.815085
6.21054 0.810355
6.21289 0.810857
6.21523 0.810939
6.21758 0.811726
6.21992 0.815905
6.22227 0.823011
6.22461 0.813355
6.22696 0.79549
6.2293 0.803215
6.23165 0.807796
6.234 0.804901
6.23634 0.813365
6.23869 0.801532
6.24103 0.800103
6.24338 0.804494
6.24572 0.805925
6.24807 0.802117
6.25041 0.798054
6.25276 0.788013
6.2551 0.776512
6.25745 0.775061
6.25979 0.778224
6.26214 0.781503
6.26449 0.785768
6.26683 0.77491
6.26918 0.771469
6.27152 0.776533
6.27387 0.780604
6.27621 0.77813
6.27856 0.774475
6.2809 0.771683
6.28325 0.777631
6.28559 0.787005
6.28794 0.79444
6.29028 0.795573
6.29263 0.788526
6.29498 0.784823
6.29732 0.779578
6.29967 0.773763
6.30201 0.773682
6.30436 0.779888
6.3067 0.777364
6.30905 0.781628
6.31139 0.774029
6.31374 0.780118
6.31608 0.787999
6.31843 0.783017
6.32077 0.78688
6.32312 0.798866
6.32546 0.810994
6.32781 0.81309
6.33016 0.808462
6.3325 0.805729
6.33485 0.807433
6.33719 0.788948
6.33954 0.778682
6.34188 0.780375
6.34423 0.78905
6.34657 0.794242
6.34892 0.782659
6.35126 0.791535
6.35361 0.795448
6.35595 0.79155
6.3583 0.782454
6.36065 0.772705
6.36299 0.763548
6.36534 0.77104
6.36768 0.783506
6.37003 0.788534
6.37237 0.786407
6.37472 0.785706
6.37706 0.789281
6.37941 0.806715
6.38175 0.80472
6.3841 0.801394
6.38644 0.802404
6.38879 0.799156
6.39114 0.783664
6.39348 0.777865
6.39583 0.778799
6.39817 0.781284
6.40052 0.780076
6.40286 0.773737
6.40521 0.777699
6.40755 0.771343
6.4099 0.769883
6.41224 0.772284
6.41459 0.778351
6.41693 0.787484
6.41928 0.780203
6.42163 0.77548
6.42397 0.770557
6.42632 0.778923
6.42866 0.790347
6.43101 0.778685
6.43335 0.773773
6.4357 0.759458
6.43804 0.757945
6.44039 0.765581
6.44273 0.777699
6.44508 0.789304
6.44742 0.766183
6.44977 0.762508
6.45211 0.750008
6.45446 0.743239
6.45681 0.74711
6.45915 0.750741
6.4615 0.7625
6.46384 0.762337
6.46619 0.768863
6.46853 0.774607
6.47088 0.772395
6.47322 0.763724
6.47557 0.771621
6.47791 0.77296
6.48026 0.775033
6.4826 0.77308
6.48495 0.768144
6.4873 0.769202
6.48964 0.778849
6.49199 0.781732
6.49433 0.786733
6.49668 0.790176
6.49902 0.788371
6.50137 0.781335
6.50371 0.775111
6.50606 0.774561
6.5084 0.783304
6.51075 0.785815
6.51309 0.783604
6.51544 0.796475
6.51779 0.802548
6.52013 0.806774
6.52248 0.805515
6.52482 0.805323
6.52717 0.809526
6.52951 0.815881
6.53186 0.827353
6.5342 0.83657
6.53655 0.838463
6.53889 0.834185
6.54124 0.831882
6.54358 0.841125
6.54593 0.838345
6.54828 0.843236
6.55062 0.844977
6.55297 0.84578
6.55531 0.844359
6.55766 0.83678
6.56 0.846014
6.56235 0.853085
6.56469 0.864656
6.56704 0.870972
6.56938 0.868481
6.57173 0.864736
6.57407 0.877245
6.57642 0.889977
6.57876 0.889274
6.58111 0.893035
6.58346 0.900283
6.5858 0.892456
6.58815 0.892207
6.59049 0.899458
6.59284 0.912296
6.59518 0.919089
6.59753 0.918602
6.59987 0.919476
6.60222 0.920557
6.60456 0.907285
6.60691 0.908836
6.60925 0.92236
6.6116 0.9352
6.61395 0.933854
6.61629 0.920602
6.61864 0.92325
6.62098 0.918715
6.62333 0.907815
6.62567 0.902996
6.62802 0.914342
6.63036 0.910208
6.63271 0.915632
6.63505 0.924645
6.6374 0.919334
6.63974 0.906148
6.64209 0.904594
6.64444 0.907083
6.64678 0.899118
6.64913 0.892923
6.65147 0.897406
6.65382 0.905949
6.65616 0.902604
6.65851 0.87602
6.66085 0.871362
6.6632 0.886582
6.66554 0.900952
6.66789 0.907592
6.67023 0.909483
6.67258 0.907417
6.67493 0.929409
6.67727 0.932123
6.67962 0.932334
6.68196 0.932393
6.68431 0.93125
6.68665 0.946005
6.689 0.924393
6.69134 0.927125
6.69369 0.941417
6.69603 0.946653
6.69838 0.935143
6.70072 0.933951
6.70307 0.950896
6.70541 0.959724
6.70776 0.965807
6.71011 0.976898
6.71245 0.99705
6.7148 1.02088
6.71714 1.01926
6.71949 1.03241
6.72183 1.03666
6.72418 1.03626
6.72652 1.0449
6.72887 1.07106
6.73121 1.08436
6.73356 1.09781
6.7359 1.10143
6.73825 1.10869
6.7406 1.12305
6.74294 1.12421
6.74529 1.12216
6.74763 1.1464
6.74998 1.17097
6.75232 1.18686
6.75467 1.19133
6.75701 1.18706
6.75936 1.20218
6.7617 1.21703
6.76405 1.22443
6.76639 1.21969
6.76874 1.21324
6.77109 1.2262
6.77343 1.25202
6.77578 1.27001
6.77812 1.29112
6.78047 1.30159
6.78281 1.29838
6.78516 1.29171
6.7875 1.28893
6.78985 1.30077
6.79219 1.31814
6.79454 1.33089
6.79688 1.33104
6.79923 1.31975
6.80158 1.32372
6.80392 1.30697
6.80627 1.29836
6.80861 1.29068
6.81096 1.28497
6.8133 1.28613
6.81565 1.29017
6.81799 1.26719
6.82034 1.26017
6.82268 1.26341
6.82503 1.26358
6.82737 1.2538
6.82972 1.24785
6.83206 1.23552
6.83441 1.23816
6.83676 1.23086
6.8391 1.21657
6.84145 1.20953
6.84379 1.22
6.84614 1.22386
6.84848 1.21276
6.85083 1.21234
6.85317 1.21331
6.85552 1.21118
6.85786 1.22179
6.86021 1.22785
6.86255 1.21906
6.8649 1.21818
6.86725 1.22159
6.86959 1.22423
6.87194 1.22598
6.87428 1.22078
6.87663 1.21315
6.87897 1.21708
6.88132 1.22073
6.88366 1.22209
6.88601 1.22943
6.88835 1.23833
6.8907 1.23621
6.89304 1.2476
6.89539 1.25682
6.89774 1.25982
6.90008 1.26425
6.90243 1.27797
6.90477 1.25362
6.90712 1.23701
6.90946 1.23072
6.91181 1.2332
6.91415 1.23877
6.9165 1.23581
6.91884 1.23891
6.92119 1.24781
6.92353 1.2491
6.92588 1.24184
6.92823 1.23552
6.93057 1.24564
6.93292 1.2509
6.93526 1.25638
6.93761 1.25155
6.93995 1.24465
6.9423 1.24598
6.94464 1.25745
6.94699 1.25395
6.94933 1.23354
6.95168 1.21181
6.95402 1.2117
6.95637 1.23042
6.95871 1.24062
6.96106 1.22921
6.96341 1.23432
6.96575 1.23546
6.9681 1.22909
6.97044 1.2136
6.97279 1.19437
6.97513 1.20018
6.97748 1.1998
6.97982 1.20381
6.98217 1.20703
6.98451 1.2054
6.98686 1.20099
6.9892 1.20648
6.99155 1.21338
6.9939 1.21964
6.99624 1.22196
6.99859 1.21525
7.00093 1.20159
7.00328 1.19504
7.00562 1.20695
7.00797 1.22212
7.01031 1.21792
7.01266 1.20578
7.015 1.19577
7.01735 1.18624
7.01969 1.18718
7.02204 1.18613
7.02439 1.18543
7.02673 1.18707
7.02908 1.18608
7.03142 1.17836
7.03377 1.18745
7.03611 1.1874
7.03846 1.16961
7.0408 1.1533
7.04315 1.13772
7.04549 1.11974
7.04784 1.12598
7.05018 1.13478
7.05253 1.14412
7.05488 1.1314
7.05722 1.113
7.05957 1.10754
7.06191 1.10711
7.06426 1.10094
7.0666 1.08851
7.06895 1.08256
7.07129 1.08128
7.07364 1.07749
7.07598 1.06584
7.07833 1.06258
7.08067 1.0559
7.08302 1.05083
7.08536 1.04717
7.08771 1.04017
7.09006 1.02625
7.0924 1.0178
7.09475 1.01269
7.09709 1.00837
7.09944 1.00739
7.10178 1.00827
7.10413 1.00759
7.10647 1.00366
7.10882 0.991616
7.11116 0.998296
7.11351 0.999683
7.11585 1.00008
7.1182 1.00047
7.12055 0.982769
7.12289 0.964097
7.12524 0.969922
7.12758 0.956571
7.12993 0.941908
7.13227 0.945366
7.13462 0.965696
7.13696 0.965585
7.13931 0.962252
7.14165 0.96271
7.144 0.95953
7.14634 0.952501
7.14869 0.950707
7.15104 0.971429
7.15338 0.977181
7.15573 0.969315
7.15807 0.959482
7.16042 0.955153
7.16276 0.958777
7.16511 0.967225
7.16745 0.960372
7.1698 0.972492
7.17214 0.97777
7.17449 0.982083
7.17683 0.988764
7.17918 0.988952
7.18153 0.979308
7.18387 0.976498
7.18622 0.978178
7.18856 0.985157
7.19091 0.996338
7.19325 1.00746
7.1956 1.0097
7.19794 1.0171
7.20029 1.01419
7.20263 1.02336
7.20498 1.03632
7.20732 1.04001
7.20967 1.04251
7.21201 1.03608
7.21436 1.04052
7.21671 1.05608
7.21905 1.07156
7.2214 1.07746
7.22374 1.07312
7.22609 1.07241
7.22843 1.06012
7.23078 1.07488
7.23312 1.09356
7.23547 1.09912
7.23781 1.09243
7.24016 1.0922
7.2425 1.10397
7.24485 1.12081
7.2472 1.12228
7.24954 1.12195
7.25189 1.13096
7.25423 1.12879
7.25658 1.13541
7.25892 1.13675
7.26127 1.1474
7.26361 1.15719
7.26596 1.16425
7.2683 1.17743
7.27065 1.17278
7.27299 1.17738
7.27534 1.1847
7.27769 1.18688
7.28003 1.18429
7.28238 1.18171
7.28472 1.17952
7.28707 1.18133
7.28941 1.18967
7.29176 1.18673
7.2941 1.18396
7.29645 1.19368
7.29879 1.20887
7.30114 1.20746
7.30348 1.19529
7.30583 1.17663
7.30818 1.16999
7.31052 1.1656
7.31287 1.13989
7.31521 1.13205
7.31756 1.15649
7.3199 1.17198
7.32225 1.16155
7.32459 1.13135
7.32694 1.10451
7.32928 1.10959
7.33163 1.11072
7.33397 1.09902
7.33632 1.08335
7.33866 1.07642
7.34101 1.07378
7.34336 1.0563
7.3457 1.05125
7.34805 1.03655
7.35039 1.03549
7.35274 1.03296
7.35508 1.02061
7.35743 1.00332
7.35977 0.997033
7.36212 0.998514
7.36446 0.994674
7.36681 0.987958
7.36915 0.983672
7.3715 0.980834
7.37385 0.968896
7.37619 0.948979
7.37854 0.956682
7.38088 0.950604
7.38323 0.948671
7.38557 0.952354
7.38792 0.946312
7.39026 0.943287
7.39261 0.94226
7.39495 0.938753
7.3973 0.940915
7.39964 0.944475
7.40199 0.942749
7.40434 0.93809
7.40668 0.953107
7.40903 0.950829
7.41137 0.949982
7.41372 0.945097
7.41606 0.933024
7.41841 0.919785
7.42075 0.914515
7.4231 0.924048
7.42544 0.928056
7.42779 0.923193
7.43013 0.918533
7.43248 0.924334
7.43483 0.939303
7.43717 0.952155
7.43952 0.950426
7.44186 0.937662
7.44421 0.930891
7.44655 0.933141
7.4489 0.929931
7.45124 0.922705
7.45359 0.919222
7.45593 0.930955
7.45828 0.943996
7.46062 0.950999
7.46297 0.95163
7.46532 0.947439
7.46766 0.944335
7.47001 0.959245
7.47235 0.972212
7.4747 0.97818
7.47704 0.98075
7.47939 0.985237
7.48173 0.981026
7.48408 0.987519
7.48642 0.992703
7.48877 1.00318
7.49111 1.00893
7.49346 1.00445
7.4958 1.02153
7.49815 1.02477
7.5005 1.0264
7.50284 1.03402
7.50519 1.05325
7.50753 1.08067
7.50988 1.10207
7.51222 1.09574
7.51457 1.10798
7.51691 1.11832
7.51926 1.14196
7.5216 1.1723
7.52395 1.19428
7.52629 1.21282
7.52864 1.22208
7.53099 1.23031
7.53333 1.24787
7.53568 1.26809
7.53802 1.28147
7.54037 1.28452
7.54271 1.286
7.54506 1.30925
7.5474 1.32693
7.54975 1.3358
7.55209 1.34206
7.55444 1.35463
7.55678 1.37742
7.55913 1.3876
7.56148 1.39374
7.56382 1.39126
7.56617 1.38768
7.56851 1.3824
7.57086 1.37081
7.5732 1.39167
7.57555 1.37659
7.57789 1.37696
7.58024 1.36422
7.58258 1.34855
7.58493 1.34374
7.58727 1.32358
7.58962 1.31745
7.59197 1.31565
7.59431 1.29792
7.59666 1.29133
7.599 1.29111
7.60135 1.26797
7.60369 1.26304
7.60604 1.2582
7.60838 1.2404
7.61073 1.22331
7.61307 1.21325
7.61542 1.20794
7.61776 1.19931
7.62011 1.18552
7.62245 1.18053
7.6248 1.1733
7.62715 1.17439
7.62949 1.17734
7.63184 1.16824
7.63418 1.16319
7.63653 1.14857
7.63887 1.14278
7.64122 1.13694
7.64356 1.12492
7.64591 1.10812
7.64825 1.09549
7.6506 1.09261
7.65294 1.09461
7.65529 1.09715
7.65764 1.10049
7.65998 1.10344
7.66233 1.10243
7.66467 1.09236
7.66702 1.08688
7.66936 1.08973
7.67171 1.07247
7.67405 1.05576
7.6764 1.04955
7.67874 1.0407
7.68109 1.03764
7.68343 1.04177
7.68578 1.05661
7.68813 1.06549
7.69047 1.06173
7.69282 1.05281
7.69516 1.05562
7.69751 1.04585
7.69985 1.05071
7.7022 1.04143
7.70454 1.03915
7.70689 1.04151
7.70923 1.03224
7.71158 1.03436
7.71392 1.03876
7.71627 1.03027
7.71862 1.01756
7.72096 1.01405
7.72331 1.02
7.72565 1.02256
7.728 1.03954
7.73034 1.04148
7.73269 1.02936
7.73503 1.02848
7.73738 1.03328
7.73972 1.03098
7.74207 1.03351
7.74441 1.0373
7.74676 1.04644
7.7491 1.05875
7.75145 1.05806
7.7538 1.04912
7.75614 1.04796
7.75849 1.037
7.76083 1.04994
7.76318 1.06655
7.76552 1.06014
7.76787 1.04634
7.77021 1.04194
7.77256 1.0457
7.7749 1.08163
7.77725 1.08382
7.77959 1.08319
7.78194 1.09308
7.78429 1.10206
7.78663 1.10014
7.78898 1.10619
7.79132 1.10884
7.79367 1.11044
7.79601 1.12797
7.79836 1.13936
7.8007 1.14272
7.80305 1.15378
7.80539 1.16261
7.80774 1.15096
7.81008 1.13958
7.81243 1.12864
7.81478 1.12726
7.81712 1.13732
7.81947 1.14693
7.82181 1.14066
7.82416 1.1349
7.8265 1.12848
7.82885 1.12866
7.83119 1.13026
7.83354 1.13158
7.83588 1.14584
7.83823 1.13942
7.84057 1.13369
7.84292 1.12949
7.84527 1.13524
7.84761 1.13579
7.84996 1.11271
7.8523 1.08792
7.85465 1.08029
7.85699 1.0779
7.85934 1.0694
7.86168 1.05871
7.86403 1.05585
7.86637 1.06373
7.86872 1.05287
7.87106 1.0551
7.87341 1.04639
7.87575 1.02335
7.8781 0.998343
7.88045 0.985877
7.88279 0.990196
7.88514 0.99421
7.88748 0.994007
7.88983 0.999192
7.89217 0.996636
7.89452 0.983468
7.89686 0.968118
7.89921 0.964029
7.90155 0.979072
7.9039 0.976333
7.90624 0.973192
7.90859 0.981128
7.91094 0.988669
7.91328 0.979867
7.91563 0.972865
7.91797 0.968133
7.92032 0.970372
7.92266 0.962254
7.92501 0.954581
7.92735 0.956885
7.9297 0.968465
7.93204 0.990936
7.93439 0.991311
7.93673 0.982912
7.93908 0.979465
7.94143 0.980268
7.94377 0.972388
7.94612 0.947837
7.94846 0.970746
7.95081 0.957033
7.95315 0.948563
7.9555 0.946894
7.95784 0.94925
7.96019 0.947147
7.96253 0.929548
7.96488 0.940511
7.96722 0.924355
7.96957 0.92292
7.97192 0.930716
7.97426 0.935089
7.97661 0.931725
7.97895 0.932121
7.9813 0.923392
7.98364 0.899325
7.98599 0.894491
7.98833 0.902613
7.99068 0.912237
7.99302 0.91818
7.99537 0.921631
7.99771 0.898335
8.00006 0.893136
8.0024 0.906325
8.00475 0.920698
8.0071 0.928089
8.00944 0.931235
8.01179 0.917924
8.01413 0.917169
8.01648 0.924436
8.01882 0.933006
8.02117 0.94201
8.02351 0.944079
8.02586 0.928035
8.0282 0.913938
8.03055 0.924629
8.03289 0.937256
8.03524 0.934523
8.03759 0.938004
8.03993 0.958981
8.04228 0.971802
8.04462 0.977649
8.04697 0.977041
8.04931 0.992605
8.05166 0.999754
8.054 1.01685
8.05635 1.05265
8.05869 1.06297
8.06104 1.07142
8.06338 1.07388
8.06573 1.07528
8.06808 1.08999
8.07042 1.10465
8.07277 1.10423
8.07511 1.10664
8.07746 1.12179
8.0798 1.10663
8.08215 1.11491
8.08449 1.12993
8.08684 1.1258
8.08918 1.09906
8.09153 1.08671
8.09387 1.10301
8.09622 1.09823
8.09857 1.08738
8.10091 1.07604
8.10326 1.07038
8.1056 1.07554
8.10795 1.08891
8.11029 1.09895
8.11264 1.09038
8.11498 1.07625
8.11733 1.0653
8.11967 1.0579
8.12202 1.05334
8.12436 1.06593
8.12671 1.05898
8.12905 1.05912
8.1314 1.081
8.13375 1.09688
8.13609 1.08761
8.13844 1.0649
8.14078 1.06763
8.14313 1.0711
8.14547 1.06643
8.14782 1.06241
8.15016 1.05779
8.15251 1.05211
8.15485 1.04784
8.1572 1.04168
8.15954 1.03076
8.16189 1.02947
8.16424 1.02174
8.16658 1.00715
8.16893 0.99965
8.17127 1.00971
8.17362 1.00101
8.17596 1.00299
8.17831 0.996759
8.18065 0.98766
8.183 0.986974
8.18534 0.993753
8.18769 0.99316
8.19003 0.980546
8.19238 0.96877
8.19473 0.958208
8.19707 0.95692
8.19942 0.949588
8.20176 0.934201
8.20411 0.929417
8.20645 0.9256
8.2088 0.923838
8.21114 0.932091
8.21349 0.945684
8.21583 0.961591
8.21818 0.966621
8.22052 0.945185
8.22287 0.927645
8.22522 0.91861
8.22756 0.932028
8.22991 0.928629
8.23225 0.922136
8.2346 0.924547
8.23694 0.919661
8.23929 0.902402
8.24163 0.913516
8.24398 0.914733
8.24632 0.910289
8.24867 0.89949
8.25101 0.889504
8.25336 0.89526
8.2557 0.912305
8.25805 0.91544
8.2604 0.91591
8.26274 0.91177
8.26509 0.907434
8.26743 0.906419
8.26978 0.903212
8.27212 0.87329
8.27447 0.853159
8.27681 0.882503
8.27916 0.900758
8.2815 0.891663
8.28385 0.871425
8.28619 0.865567
8.28854 0.87891
8.29089 0.882312
8.29323 0.875686
8.29558 0.884781
8.29792 0.886398
8.30027 0.873961
8.30261 0.868861
8.30496 0.859743
8.3073 0.84972
8.30965 0.862175
8.31199 0.866432
8.31434 0.874341
8.31668 0.888478
8.31903 0.892792
8.32138 0.888998
8.32372 0.898602
8.32607 0.874959
8.32841 0.861458
8.33076 0.861061
8.3331 0.86269
8.33545 0.858809
8.33779 0.855154
8.34014 0.864256
8.34248 0.867266
8.34483 0.879459
8.34717 0.883958
8.34952 0.877054
8.35187 0.870753
8.35421 0.869135
8.35656 0.873065
8.3589 0.879501
8.36125 0.892134
8.36359 0.893998
8.36594 0.894905
8.36828 0.906043
8.37063 0.894111
8.37297 0.8885
8.37532 0.866443
8.37766 0.871243
8.38001 0.881631
8.38235 0.881697
8.3847 0.88128
8.38705 0.906047
8.38939 0.88883
8.39174 0.871587
8.39408 0.891239
8.39643 0.899052
8.39877 0.891606
8.40112 0.888944
8.40346 0.891729
8.40581 0.896911
8.40815 0.89309
8.4105 0.915222
8.41284 0.91597
8.41519 0.896935
8.41754 0.882241
8.41988 0.884583
8.42223 0.91277
8.42457 0.912348
8.42692 0.894676
8.42926 0.892918
8.43161 0.896904
8.43395 0.895908
8.4363 0.902136
8.43864 0.928858
8.44099 0.920617
8.44333 0.936794
8.44568 0.937069
8.44803 0.926607
8.45037 0.922308
8.45272 0.929526
8.45506 0.935747
8.45741 0.933645
8.45975 0.932113
8.4621 0.944055
8.46444 0.934974
8.46679 0.919487
8.46913 0.931796
8.47148 0.935449
8.47382 0.938591
8.47617 0.926699
8.47852 0.936189
8.48086 0.939161
8.48321 0.930695
8.48555 0.92952
8.4879 0.946006
8.49024 0.930887
8.49259 0.928589
8.49493 0.934811
8.49728 0.930011
8.49962 0.918698
8.50197 0.913628
8.50431 0.916731
8.50666 0.921519
8.509 0.917595
8.51135 0.916627
8.5137 0.913314
8.51604 0.910039
8.51839 0.905953
8.52073 0.897613
8.52308 0.900224
8.52542 0.915488
8.52777 0.924778
8.53011 0.940368
8.53246 0.939326
8.5348 0.915468
8.53715 0.892411
8.53949 0.900889
8.54184 0.915452
8.54419 0.911492
8.54653 0.9198
8.54888 0.922644
8.55122 0.912587
8.55357 0.899295
8.55591 0.895532
8.55826 0.903817
8.5606 0.914906
8.56295 0.921205
8.56529 0.920771
8.56764 0.914964
8.56998 0.907865
8.57233 0.903261
8.57468 0.89538
8.57702 0.89218
8.57937 0.868643
8.58171 0.868821
8.58406 0.880967
8.5864 0.883817
8.58875 0.878111
8.59109 0.885487
8.59344 0.883959
8.59578 0.887437
8.59813 0.889038
8.60047 0.88788
8.60282 0.889097
8.60517 0.892311
8.60751 0.881052
8.60986 0.864545
8.6122 0.882301
8.61455 0.896865
8.61689 0.891139
8.61924 0.877537
8.62158 0.869648
8.62393 0.86175
8.62627 0.85991
8.62862 0.863735
8.63096 0.878521
8.63331 0.895693
8.63565 0.900992
8.638 0.895491
8.64035 0.893782
8.64269 0.895214
8.64504 0.889148
8.64738 0.89666
8.64973 0.903539
8.65207 0.90828
8.65442 0.911594
8.65676 0.911458
8.65911 0.904043
8.66145 0.906601
8.6638 0.903701
8.66614 0.897279
8.66849 0.907981
8.67084 0.926841
8.67318 0.935676
8.67553 0.933626
8.67787 0.946745
8.68022 0.912551
8.68256 0.902361
8.68491 0.904956
8.68725 0.906525
8.6896 0.912389
8.69194 0.932001
8.69429 0.940633
8.69663 0.936366
8.69898 0.952343
8.70133 0.945242
8.70367 0.942351
8.70602 0.959213
8.70836 0.982707
8.71071 0.987111
8.71305 0.987017
8.7154 0.97191
8.71774 0.968422
8.72009 0.972124
8.72243 0.966381
8.72478 0.950232
8.72712 0.940591
8.72947 0.94138
8.73182 0.944868
8.73416 0.951348
8.73651 0.958012
8.73885 0.977324
8.7412 0.990748
8.74354 0.98215
8.74589 0.983819
8.74823 1.00113
8.75058 1.0052
8.75292 0.992955
8.75527 0.988504
8.75761 0.991867
8.75996 0.995516
8.76231 1.00064
8.76465 1.01548
8.767 0.979231
8.76934 0.975314
8.77169 0.978525
8.77403 0.969307
8.77638 0.955649
8.77872 0.953139
8.78107 0.954372
8.78341 0.973147
8.78576 0.956007
8.7881 0.969307
8.79045 0.957181
8.79279 0.944058
8.79514 0.951308
8.79749 0.950613
8.79983 0.95236
8.80218 0.941786
8.80452 0.923194
8.80687 0.911361
8.80921 0.90262
8.81156 0.900877
8.8139 0.911348
8.81625 0.920168
8.81859 0.88928
8.82094 0.902078
8.82328 0.899001
8.82563 0.908135
8.82798 0.910539
8.83032 0.89824
8.83267 0.897843
8.83501 0.904344
8.83736 0.897502
8.8397 0.876852
8.84205 0.882947
8.84439 0.882918
8.84674 0.876689
8.84908 0.887084
8.85143 0.90773
8.85377 0.907124
8.85612 0.894388
8.85847 0.9065
8.86081 0.892386
8.86316 0.870213
8.8655 0.86606
8.86785 0.876098
8.87019 0.886474
8.87254 0.881054
8.87488 0.86413
8.87723 0.851212
8.87957 0.85354
8.88192 0.868329
8.88426 0.883395
8.88661 0.886246
8.88896 0.868758
8.8913 0.859438
8.89365 0.866543
8.89599 0.868039
8.89834 0.858114
8.90068 0.846848
8.90303 0.84802
8.90537 0.863122
8.90772 0.887588
8.91006 0.887076
8.91241 0.885325
8.91475 0.886989
8.9171 0.883131
8.91944 0.872433
8.92179 0.870726
8.92414 0.893784
8.92648 0.899234
8.92883 0.903775
8.93117 0.899771
8.93352 0.912891
8.93586 0.926214
8.93821 0.916774
8.94055 0.911878
8.9429 0.922395
8.94524 0.939646
8.94759 0.947859
8.94993 0.932561
8.95228 0.925434
8.95463 0.946768
8.95697 0.977412
8.95932 0.977214
8.96166 0.973396
8.96401 0.964282
8.96635 0.961479
8.9687 0.963114
8.97104 0.961832
8.97339 0.953905
8.97573 0.946691
8.97808 0.960674
8.98042 0.970858
8.98277 0.967503
8.98512 0.970195
8.98746 0.979706
8.98981 0.983687
8.99215 0.976095
8.9945 0.969104
8.99684 0.964161
8.99919 0.981981
9.00153 0.970031
9.00388 0.9601
9.00622 0.959367
9.00857 0.962172
9.01091 0.969053
9.01326 0.994262
9.01561 1.0044
9.01795 0.993044
9.0203 0.986287
9.02264 0.986523
9.02499 0.991243
9.02733 0.997139
9.02968 1.00733
9.03202 1.03881
9.03437 1.0562
9.03671 1.03311
9.03906 1.00857
9.0414 1.00584
9.04375 1.01547
9.04609 1.02138
9.04844 1.02429
9.05079 1.03188
9.05313 1.0437
9.05548 1.04866
9.05782 1.04847
9.06017 1.04406
9.06251 1.03601
9.06486 1.02835
9.0672 1.02692
9.06955 1.01701
9.07189 1.02476
9.07424 1.03901
9.07658 1.0452
9.07893 1.04344
9.08128 1.03564
9.08362 1.02389
9.08597 1.01409
9.08831 1.00096
9.09066 1.01691
9.093 1.03798
9.09535 1.04023
9.09769 1.01847
9.10004 0.990285
9.10238 0.982107
9.10473 1.00338
9.10707 1.02378
9.10942 1.0282
9.11177 1.01653
9.11411 1.00111
9.11646 0.993677
9.1188 0.993515
9.12115 0.990186
9.12349 0.98207
9.12584 0.984473
9.12818 0.984427
9.13053 0.963532
9.13287 0.956971
9.13522 0.965643
9.13756 0.976901
9.13991 0.986956
9.14226 0.985914
9.1446 0.982057
9.14695 0.975069
9.14929 0.947943
9.15164 0.947196
9.15398 0.960542
9.15633 0.964806
9.15867 0.970412
9.16102 0.96031
9.16336 0.944306
9.16571 0.935582
9.16805 0.92842
9.1704 0.935683
9.17274 0.961619
9.17509 0.988227
9.17744 0.988374
9.17978 0.978926
9.18213 0.950834
9.18447 0.937343
9.18682 0.939601
9.18916 0.923144
9.19151 0.907545
9.19385 0.910202
9.1962 0.897431
9.19854 0.909122
9.20089 0.924062
9.20323 0.937791
9.20558 0.936209
9.20793 0.922176
9.21027 0.906076
9.21262 0.894117
9.21496 0.885471
9.21731 0.892451
9.21965 0.901064
9.222 0.903329
9.22434 0.899475
9.22669 0.902409
9.22903 0.91033
9.23138 0.915558
9.23372 0.917792
9.23607 0.896685
9.23842 0.904636
9.24076 0.881145
9.24311 0.864796
9.24545 0.857593
9.2478 0.864618
9.25014 0.885633
9.25249 0.90049
9.25483 0.910189
9.25718 0.887856
9.25952 0.893259
9.26187 0.900071
9.26421 0.876842
9.26656 0.855392
9.26891 0.873003
9.27125 0.903419
9.2736 0.919646
9.27594 0.904687
9.27829 0.889778
9.28063 0.887419
9.28298 0.892738
9.28532 0.898869
9.28767 0.90215
9.29001 0.901877
9.29236 0.900302
9.2947 0.889052
9.29705 0.89173
9.29939 0.907139
9.30174 0.922016
9.30409 0.929721
9.30643 0.927875
9.30878 0.916345
9.31112 0.912902
9.31347 0.932311
9.31581 0.935198
9.31816 0.941555
9.3205 0.949391
9.32285 0.947153
9.32519 0.940111
9.32754 0.951067
9.32988 0.973492
9.33223 0.980039
9.33458 0.99453
9.33692 1.00298
9.33927 0.986923
9.34161 0.976505
9.34396 0.989875
9.3463 1.00471
9.34865 1.01708
9.35099 1.01251
9.35334 1.02496
9.35568 1.04129
9.35803 1.03988
9.36037 1.04385
9.36272 1.05767
9.36507 1.05896
9.36741 1.06674
9.36976 1.08768
9.3721 1.09586
9.37445 1.12131
9.37679 1.12913
9.37914 1.12449
9.38148 1.12117
9.38383 1.11765
9.38617 1.10689
9.38852 1.11924
9.39086 1.11709
9.39321 1.12844
9.39556 1.14987
9.3979 1.15971
9.40025 1.15444
9.40259 1.13939
9.40494 1.10981
9.40728 1.10692
9.40963 1.12937
9.41197 1.125
9.41432 1.11582
9.41666 1.11875
9.41901 1.14081
9.42135 1.16139
9.4237 1.14641
9.42604 1.13515
9.42839 1.12863
9.43074 1.10955
9.43308 1.09773
9.43543 1.10199
9.43777 1.10586
9.44012 1.09914
9.44246 1.09281
9.44481 1.09035
9.44715 1.10009
9.4495 1.12694
9.45184 1.1307
9.45419 1.13325
9.45653 1.13903
9.45888 1.14692
9.46123 1.15001
9.46357 1.12234
9.46592 1.08909
9.46826 1.10642
9.47061 1.11298
9.47295 1.10976
9.4753 1.11457
9.47764 1.13092
9.47999 1.14551
9.48233 1.14619
9.48468 1.13941
9.48702 1.10841
9.48937 1.09077
9.49172 1.1037
9.49406 1.13365
9.49641 1.14814
9.49875 1.1378
9.5011 1.12798
9.50344 1.12605
9.50579 1.11922
9.50813 1.0947
9.51048 1.06896
9.51282 1.07275
9.51517 1.09357
9.51751 1.10357
9.51986 1.09313
9.52221 1.07988
9.52455 1.08254
9.5269 1.07558
9.52924 1.09671
9.53159 1.12515
9.53393 1.13433
9.53628 1.12515
9.53862 1.11723
9.54097 1.12007
9.54331 1.12073
9.54566 1.13373
9.548 1.13122
9.55035 1.14417
9.55269 1.14593
9.55504 1.12724
9.55739 1.10947
9.55973 1.1138
9.56208 1.11689
9.56442 1.09995
9.56677 1.10594
9.56911 1.12473
9.57146 1.13953
9.5738 1.13744
9.57615 1.13022
9.57849 1.1344
9.58084 1.13761
9.58318 1.11916
9.58553 1.1192
9.58788 1.12309
9.59022 1.13449
9.59257 1.13593
9.59491 1.12489
9.59726 1.1139
9.5996 1.1121
9.60195 1.10987
9.60429 1.11547
9.60664 1.13487
9.60898 1.12644
9.61133 1.10962
9.61367 1.09398
9.61602 1.08645
9.61837 1.08471
9.62071 1.0705
9.62306 1.06723
9.6254 1.08046
9.62775 1.08393
9.63009 1.07812
9.63244 1.07606
9.63478 1.069
9.63713 1.05331
9.63947 1.04759
9.64182 1.0597
9.64416 1.05986
9.64651 1.07187
9.64886 1.06345
9.6512 1.05697
9.65355 1.04596
9.65589 1.02373
9.65824 1.00483
9.66058 1.01023
9.66293 1.00968
9.66527 1.0175
9.66762 1.02501
9.66996 1.02759
9.67231 1.02099
9.67465 1.00205
9.677 0.994095
9.67934 1.01827
9.68169 1.02526
9.68404 1.01272
9.68638 0.998597
9.68873 1.00523
9.69107 0.997098
9.69342 0.983988
9.69576 0.980732
9.69811 0.984177
9.70045 0.979325
9.7028 0.964022
9.70514 0.966165
9.70749 0.992222
9.70983 1.0078
9.71218 1.01244
9.71453 0.999924
9.71687 0.982237
9.71922 0.978951
9.72156 0.983895
9.72391 0.994214
9.72625 0.99498
9.7286 1.00078
9.73094 0.980776
9.73329 0.982485
9.73563 0.99819
9.73798 0.999075
9.74032 0.991871
9.74267 1.00729
9.74502 1.04584
9.74736 1.03609
9.74971 1.01669
9.75205 0.997919
9.7544 0.980735
9.75674 0.984565
9.75909 1.00988
9.76143 1.02325
9.76378 1.03728
9.76612 1.05204
9.76847 1.05736
9.77081 1.06064
9.77316 1.0459
9.77551 1.0249
9.77785 1.01624
9.7802 1.03094
9.78254 1.0612
9.78489 1.04607
9.78723 1.04
9.78958 1.04696
9.79192 1.04343
9.79427 1.06126
9.79661 1.07463
9.79896 1.06816
9.8013 1.06219
9.80365 1.06112
9.80599 1.05522
9.80834 1.02851
9.81069 1.03601
9.81303 1.01717
9.81538 0.990796
9.81772 0.982075
9.82007 0.997708
9.82241 1.02112
9.82476 1.01909
9.8271 1.00381
9.82945 1.01689
9.83179 0.998585
9.83414 0.991526
9.83648 0.998825
9.83883 1.00398
9.84118 1.00257
9.84352 1.00325
9.84587 0.99487
9.84821 0.976451
9.85056 0.961287
9.8529 0.974657
9.85525 0.968324
9.85759 0.96546
9.85994 0.969861
9.86228 0.964517
9.86463 0.95305
9.86697 0.961463
9.86932 0.968091
9.87167 0.958127
9.87401 0.970508
9.87636 0.97114
9.8787 0.962955
9.88105 0.955924
9.88339 0.950619
9.88574 0.942589
9.88808 0.932533
9.89043 0.962348
9.89277 0.965929
9.89512 0.960566
9.89746 0.970608
9.89981 0.962943
9.90216 0.951526
9.9045 0.95613
9.90685 0.948039
9.90919 0.950719
9.91154 0.958183
9.91388 0.961147
9.91623 0.949884
9.91857 0.947984
9.92092 0.948712
9.92326 0.946492
9.92561 0.945288
9.92795 0.947766
9.9303 0.953361
9.93264 0.946236
9.93499 0.927498
9.93734 0.924671
9.93968 0.944396
9.94203 0.948459
9.94437 0.936308
9.94672 0.935298
9.94906 0.950577
9.95141 0.967853
9.95375 0.965987
9.9561 0.943391
9.95844 0.925238
9.96079 0.935843
9.96313 0.937951
9.96548 0.929251
9.96783 0.933966
9.97017 0.946567
9.97252 0.9344
9.97486 0.945108
9.97721 0.940163
9.97955 0.944388
9.9819 0.951193
9.98424 0.947486
9.98659 0.944159
9.98893 0.94749
9.99128 0.94602
9.99362 0.949203
9.99597 0.928307
9.99832 0.941681
10.0007 0.925662
10.003 0.912962
10.0054 0.917448
10.0077 0.926621
10.01 0.933985
10.0124 0.947253
10.0147 0.956045
10.0171 0.935655
10.0194 0.91562
10.0218 0.914584
10.0241 0.912228
10.0265 0.923525
10.0288 0.946492
10.0312 0.949738
10.0335 0.924675
10.0358 0.927173
10.0382 0.937709
10.0405 0.903387
10.0429 0.885339
10.0452 0.893077
10.0476 0.921922
10.0499 0.929308
10.0523 0.91418
10.0546 0.911617
10.0569 0.925032
10.0593 0.935953
10.0616 0.894016
10.064 0.916291
10.0663 0.936521
10.0687 0.9524
10.071 0.9401
10.0734 0.929545
10.0757 0.942736
10.0781 0.939908
10.0804 0.935436
10.0827 0.913703
10.0851 0.913824
10.0874 0.924991
10.0898 0.948826
10.0921 0.95865
10.0945 0.945422
10.0968 0.929856
10.0992 0.932844
10.1015 0.940208
10.1039 0.947583
10.1062 0.95436
10.1085 0.936571
10.1109 0.928365
10.1132 0.92636
10.1156 0.927173
10.1179 0.930076
10.1203 0.933268
10.1226 0.936919
10.125 0.948228
10.1273 0.966043
10.1297 0.967071
10.132 0.970762
10.1343 0.965449
10.1367 0.946294
10.139 0.94584
10.1414 0.97229
10.1437 0.983576
10.1461 0.989097
10.1484 1.02279
10.1508 1.01044
10.1531 0.989607
10.1555 0.996657
10.1578 1.01525
10.1601 1.01992
10.1625 1.00882
10.1648 1.00822
10.1672 1.03812
10.1695 1.03802
10.1719 1.04864
10.1742 1.0537
10.1766 1.07043
10.1789 1.05542
10.1813 1.05437
10.1836 1.07176
10.1859 1.07652
10.1883 1.07409
10.1906 1.06329
10.193 1.04808
10.1953 1.0689
10.1977 1.07371
10.2 1.0893
10.2024 1.10779
10.2047 1.12291
10.2071 1.13201
10.2094 1.12989
10.2117 1.11716
10.2141 1.11548
10.2164 1.09916
10.2188 1.10064
10.2211 1.10852
10.2235 1.09677
10.2258 1.08305
10.2282 1.07853
10.2305 1.083
10.2329 1.09701
10.2352 1.10385
10.2375 1.09875
10.2399 1.08587
10.2422 1.11073
10.2446 1.11977
10.2469 1.12945
10.2493 1.12809
10.2516 1.11564
10.254 1.1123
10.2563 1.11504
10.2587 1.10526
10.261 1.10603
10.2633 1.12337
10.2657 1.11117
10.268 1.11962
10.2704 1.10891
10.2727 1.08595
10.2751 1.08756
10.2774 1.11085
10.2798 1.11518
10.2821 1.08953
10.2845 1.09875
10.2868 1.11466
10.2891 1.12864
10.2915 1.10451
10.2938 1.07353
10.2962 1.07064
10.2985 1.0721
10.3009 1.03991
10.3032 1.03045
10.3056 1.02651
10.3079 1.0835
10.3102 1.10834
10.3126 1.10081
10.3149 1.07724
10.3173 1.07714
10.3196 1.0921
10.322 1.08798
10.3243 1.06705
10.3267 1.04055
10.329 1.03979
10.3314 1.02852
10.3337 1.03014
10.336 1.04231
10.3384 1.04293
10.3407 1.03774
10.3431 1.04246
10.3454 1.05326
10.3478 1.05475
10.3501 1.06492
10.3525 1.02852
10.3548 1.00065
10.3572 1.01506
10.3595 1.01036
10.3618 1.00804
10.3642 0.999345
10.3665 1.00187
10.3689 1.03603
10.3712 1.04004
10.3736 1.02118
10.3759 1.01112
10.3783 0.976555
10.3806 0.973661
10.383 0.985546
10.3853 1.01721
10.3876 1.03553
10.39 1.02266
10.3923 0.993855
10.3947 0.960596
10.397 0.996497
10.3994 0.991142
10.4017 0.975459
10.4041 0.972033
10.4064 0.980239
10.4088 0.994779
10.4111 0.981128
10.4134 0.957246
10.4158 0.970945
10.4181 0.991358
10.4205 1.01076
10.4228 0.972885
10.4252 0.951076
10.4275 0.953749
10.4299 0.966433
10.4322 0.977975
10.4346 0.987334
10.4369 0.985055
10.4392 0.970286
10.4416 0.97482
10.4439 0.991187
10.4463 0.964709
10.4486 0.954951
10.451 0.948593
10.4533 0.961254
10.4557 0.970191
10.458 0.964498
10.4604 0.961494
10.4627 0.974284
10.465 0.988402
10.4674 1.01043
10.4697 1.01227
10.4721 1.016
10.4744 0.983429
10.4768 0.965168
10.4791 0.974224
10.4815 0.986344
10.4838 0.978414
10.4862 0.959512
10.4885 0.96131
10.4908 0.987805
10.4932 1.00072
10.4955 0.985967
10.4979 0.977034
10.5002 0.990302
10.5026 1.00631
10.5049 1.01871
10.5073 1.0221
10.5096 1.01202
10.512 0.998173
10.5143 0.993539
10.5166 0.97603
10.519 0.980763
10.5213 1.011
10.5237 1.02766
10.526 1.01528
10.5284 0.992116
10.5307 0.991015
10.5331 1.00063
10.5354 0.995684
10.5378 1.01759
10.5401 0.99748
10.5424 0.963475
10.5448 0.988224
10.5471 0.981079
10.5495 0.974031
10.5518 0.986031
10.5542 1.00508
10.5565 1.02378
10.5589 1.0338
10.5612 1.0111
10.5635 0.993372
10.5659 1.01595
10.5682 1.03899
10.5706 1.01963
10.5729 1.02609
10.5753 1.02448
10.5776 1.0005
10.58 0.977508
10.5823 0.975805
10.5847 0.98353
10.587 0.980541
10.5893 1.00378
10.5917 0.995914
10.594 0.975926
10.5964 0.955022
10.5987 0.952309
10.6011 0.962913
10.6034 0.977039
10.6058 0.989741
10.6081 0.996937
10.6105 0.988826
10.6128 0.952423
10.6151 0.928775
10.6175 0.930866
10.6198 0.943612
10.6222 0.945717
10.6245 0.935177
10.6269 0.959527
10.6292 0.99498
10.6316 0.996674
10.6339 0.983858
10.6363 0.951287
10.6386 0.93133
10.6409 0.933413
10.6433 0.952857
10.6456 0.948022
10.648 0.94254
10.6503 0.952862
10.6527 0.969663
10.655 0.982679
10.6574 0.973758
10.6597 0.926206
10.6621 0.929521
10.6644 0.982472
10.6667 0.983193
10.6691 0.96261
10.6714 0.971516
10.6738 0.999251
10.6761 1.02221
10.6785 1.01866
10.6808 1.00092
10.6832 0.999502
10.6855 1.00313
10.6879 1.01137
10.6902 1.04753
10.6925 1.03193
10.6949 1.00131
10.6972 0.991344
10.6996 0.983066
10.7019 0.977763
10.7043 0.976012
10.7066 0.980844
10.709 1.00574
10.7113 1.02908
10.7137 1.00671
10.716 1.02235
10.7183 1.01324
10.7207 1.00786
10.723 1.02003
10.7254 1.032
10.7277 1.03819
10.7301 1.04006
10.7324 1.03288
10.7348 1.01311
10.7371 0.99433
10.7395 1.00967
10.7418 1.03384
10.7441 1.04481
10.7465 1.03248
10.7488 1.01563
10.7512 1.01341
10.7535 1.01563
10.7559 1.02071
10.7582 1.03003
10.7606 1.02504
10.7629 1.02672
10.7653 1.03437
10.7676 1.05961
10.7699 1.05043
10.7723 1.05039
10.7746 1.04292
10.777 1.0409
10.7793 1.03004
10.7817 1.00598
10.784 0.989286
10.7864 0.984143
10.7887 0.987466
10.7911 1.00714
10.7934 1.02612
10.7957 1.04769
10.7981 1.06402
10.8004 1.04059
10.8028 1.01612
10.8051 1.00073
10.8075 0.987436
10.8098 0.979964
10.8122 0.988191
10.8145 1.03267
10.8168 1.00999
10.8192 1.01741
10.8215 1.03245
10.8239 1.02031
10.8262 1.00551
10.8286 1.00572
10.8309 1.01312
10.8333 1.00304
10.8356 0.980102
10.838 0.98046
10.8403 0.991516
10.8426 1.00987
10.845 0.981193
10.8473 0.964049
10.8497 0.980025
10.852 0.99099
10.8544 1.00216
10.8567 1.00078
10.8591 0.996339
10.8614 1.0033
10.8638 1.00467
10.8661 0.993962
10.8684 0.972419
10.8708 0.97509
10.8731 0.988092
10.8755 0.990062
10.8778 1.00602
10.8802 1.00451
10.8825 0.99534
10.8849 0.995086
10.8872 1.00002
10.8896 0.991931
10.8919 0.963607
10.8942 0.968226
10.8966 0.983731
10.8989 0.985175
10.9013 0.971757
10.9036 0.989781
10.906 1.02122
10.9083 1.01623
10.9107 0.993653
10.913 0.982742
10.9154 0.983207
10.9177 0.99144
10.92 0.983018
10.9224 0.981652
10.9247 0.964873
10.9271 0.982765
10.9294 0.972327
10.9318 0.954859
10.9341 0.959227
10.9365 0.969939
10.9388 0.963387
10.9412 0.949188
10.9435 0.95777
10.9458 0.990146
10.9482 1.00223
10.9505 0.981705
10.9529 0.988978
10.9552 0.978841
10.9576 0.985735
10.9599 0.983609
10.9623 0.980302
10.9646 0.984056
10.967 0.981812
10.9693 0.974391
10.9716 0.984898
10.974 0.991078
10.9763 0.976027
10.9787 0.95954
10.981 0.98672
10.9834 1.0082
10.9857 1.01554
10.9881 0.995922
10.9904 0.984085
10.9928 0.967006
10.9951 0.957053
10.9974 0.994359
10.9998 1.02279
11.0021 1.01578
11.0045 0.995342
11.0068 1.03696
11.0092 1.05981
11.0115 1.02582
11.0139 1.02308
11.0162 1.03912
11.0186 1.03161
11.0209 1.01409
11.0232 1.00372
11.0256 1.00165
11.0279 1.04377
11.0303 1.04622
11.0326 1.06171
11.035 1.06685
11.0373 1.07054
11.0397 1.06945
11.042 1.0719
11.0444 1.06717
11.0467 1.05565
11.049 1.047
11.0514 1.0579
11.0537 1.08919
11.0561 1.10192
11.0584 1.11539
11.0608 1.11144
11.0631 1.09026
11.0655 1.10764
11.0678 1.13681
11.0701 1.16654
11.0725 1.15088
11.0748 1.12418
11.0772 1.12363
11.0795 1.14119
11.0819 1.16909
11.0842 1.19416
11.0866 1.15613
11.0889 1.14235
11.0913 1.13748
11.0936 1.13863
11.0959 1.1285
11.0983 1.11579
11.1006 1.13552
11.103 1.16655
11.1053 1.18739
11.1077 1.18271
11.11 1.14611
11.1124 1.13405
11.1147 1.13303
11.1171 1.12016
11.1194 1.10957
11.1217 1.0923
11.1241 1.1052
11.1264 1.13044
11.1288 1.12284
11.1311 1.11736
11.1335 1.13094
11.1358 1.14596
11.1382 1.14668
11.1405 1.11827
11.1429 1.11919
11.1452 1.07768
11.1475 1.06854
11.1499 1.08471
11.1522 1.09133
11.1546 1.09381
11.1569 1.09938
11.1593 1.09833
11.1616 1.07267
11.164 1.04517
11.1663 1.05093
11.1687 1.06226
11.171 1.04815
11.1733 1.08106
11.1757 1.0675
11.178 1.06353
11.1804 1.05997
11.1827 1.05701
11.1851 1.05923
11.1874 1.04842
11.1898 1.03175
11.1921 1.01885
11.1945 1.0119
11.1968 1.0201
11.1991 1.04342
11.2015 1.0736
11.2038 1.06824
11.2062 1.09308
11.2085 1.08344
11.2109 1.08318
11.2132 1.03973
11.2156 1.03002
11.2179 1.06134
11.2203 1.07426
11.2226 1.06194
11.2249 1.05417
11.2273 1.04915
11.2296 1.09094
11.232 1.09948
11.2343 1.06885
11.2367 1.04047
11.239 1.07857
11.2414 1.07357
11.2437 1.06842
11.2461 1.05635
11.2484 1.05649
11.2507 1.06365
11.2531 1.06321
11.2554 1.07077
11.2578 1.07591
11.2601 1.06746
11.2625 1.08921
11.2648 1.12927
11.2672 1.10191
11.2695 1.09236
11.2719 1.08435
11.2742 1.07031
11.2765 1.06351
11.2789 1.0901
11.2812 1.12632
11.2836 1.13206
11.2859 1.10987
11.2883 1.07506
11.2906 1.07948
11.293 1.06955
11.2953 1.07589
11.2977 1.05963
11.3 1.05517
11.3023 1.06095
11.3047 1.05853
11.307 1.0586
11.3094 1.05737
11.3117 1.07185
11.3141 1.1014
11.3164 1.1038
11.3188 1.10878
11.3211 1.14774
11.3234 1.12532
11.3258 1.10445
11.3281 1.11253
11.3305 1.13869
11.3328 1.13378
11.3352 1.10813
11.3375 1.09304
11.3399 1.10648
11.3422 1.10523
11.3446 1.08493
11.3469 1.0954
11.3492 1.09388
11.3516 1.1156
11.3539 1.10055
11.3563 1.09685
11.3586 1.10124
11.361 1.10123
11.3633 1.09606
11.3657 1.08968
11.368 1.08696
11.3704 1.084
11.3727 1.08656
11.375 1.09769
11.3774 1.11071
11.3797 1.12924
11.3821 1.13844
11.3844 1.10135
11.3868 1.08985
11.3891 1.08722
11.3915 1.07908
11.3938 1.10427
11.3962 1.11396
11.3985 1.08723
11.4008 1.05632
11.4032 1.06752
11.4055 1.09842
11.4079 1.09685
11.4102 1.07585
11.4126 1.06222
11.4149 1.06896
11.4173 1.03781
11.4196 1.04538
11.422 1.06024
11.4243 1.066
11.4266 1.0611
11.429 1.06028
11.4313 1.06245
11.4337 1.05206
11.436 1.04556
11.4384 1.05492
11.4407 1.05061
11.4431 1.02858
11.4454 1.03161
11.4478 1.04103
11.4501 1.06602
11.4524 1.06091
11.4548 1.05742
11.4571 1.03914
11.4595 1.0426
11.4618 1.0495
11.4642 1.04263
11.4665 1.04058
11.4689 1.04749
11.4712 1.04171
11.4736 1.02313
11.4759 1.01867
11.4782 1.04084
11.4806 1.05029
11.4829 1.03305
11.4853 1.00287
11.4876 1.01887
11.49 1.0128
11.4923 1.0038
11.4947 1.0078
11.497 1.02223
11.4994 1.01429
11.5017 0.994126
11.504 0.9966
11.5064 1.02061
11.5087 1.06317
11.5111 1.04498
11.5134 1.01877
11.5158 1.00418
11.5181 0.996457
11.5205 0.995358
11.5228 0.994613
11.5252 0.989503
11.5275 1.00378
11.5298 1.01456
11.5322 1.00332
11.5345 0.995304
11.5369 1.00593
11.5392 1.02104
11.5416 1.04478
11.5439 1.04542
11.5463 1.05009
11.5486 1.01432
11.551 1.02923
11.5533 1.04632
11.5556 1.04929
11.558 1.03236
11.5603 1.02565
11.5627 1.04203
11.565 1.05553
11.5674 1.05381
11.5697 1.04313
11.5721 1.02286
11.5744 1.0025
11.5767 0.997557
11.5791 1.00962
11.5814 1.01635
11.5838 1.03504
11.5861 1.04829
11.5885 1.03385
11.5908 1.04152
11.5932 1.0253
11.5955 1.01323
11.5979 1.02242
11.6002 1.03121
11.6025 1.0376
11.6049 1.0466
11.6072 1.03589
11.6096 1.0166
11.6119 1.00988
11.6143 1.02375
11.6166 1.02851
11.619 1.03464
11.6213 1.02562
11.6237 1.04286
11.626 1.04957
11.6283 1.05001
11.6307 1.04485
11.633 1.04213
11.6354 1.04516
11.6377 1.04865
11.6401 1.04876
11.6424 1.04805
11.6448 1.04919
11.6471 0.992502
11.6495 0.981389
11.6518 1.03144
11.6541 1.02265
11.6565 1.02486
11.6588 1.02996
11.6612 1.00919
11.6635 0.996332
11.6659 1.01237
11.6682 1.01859
11.6706 0.994562
11.6729 0.98601
11.6753 1.01371
11.6776 1.02329
11.6799 1.01016
11.6823 0.973979
11.6846 0.97601
11.687 0.989362
11.6893 1.0082
11.6917 1.02247
11.694 1.05368
11.6964 1.05823
11.6987 1.04359
11.7011 1.02523
11.7034 1.01395
11.7057 1.01517
11.7081 1.03014
11.7104 1.03592
11.7128 1.01737
11.7151 1.0317
11.7175 1.01998
11.7198 1.04264
11.7222 1.01476
11.7245 1.0299
11.7269 1.03655
11.7292 1.01135
11.7315 0.976715
11.7339 1.03383
11.7362 1.05137
11.7386 1.04669
11.7409 1.02815
11.7433 1.00461
11.7456 1.01221
11.748 1.01272
11.7503 1.02869
11.7527 1.05122
11.755 1.05321
11.7573 1.02329
11.7597 1.02529
11.762 1.06014
11.7644 1.05419
11.7667 1.058
11.7691 1.06101
11.7714 1.06069
11.7738 1.04282
11.7761 1.00813
11.7785 0.99754
11.7808 1.02267
11.7831 1.03494
11.7855 1.01464
11.7878 0.997272
11.7902 0.98317
11.7925 1.00099
11.7949 0.995708
11.7972 1.02507
11.7996 1.01453
11.8019 1.01571
11.8043 0.989354
11.8066 0.982354
11.8089 0.97862
11.8113 0.994816
11.8136 1.01731
11.816 1.04156
11.8183 1.06425
11.8207 1.07067
11.823 1.0797
11.8254 1.07669
11.8277 1.06387
11.83 1.02848
11.8324 1.01057
11.8347 1.00054
11.8371 1.01338
11.8394 1.01748
11.8418 0.999439
11.8441 0.983652
11.8465 1.01174
11.8488 1.02103
11.8512 1.00101
11.8535 0.969287
11.8558 0.949359
11.8582 0.966229
11.8605 0.981583
11.8629 0.959196
11.8652 0.959037
11.8676 0.983622
11.8699 0.974975
11.8723 0.986446
11.8746 0.988529
11.877 1.02058
11.8793 1.03582
11.8816 0.995675
11.884 0.964893
11.8863 0.955984
11.8887 0.962477
11.891 0.960944
11.8934 0.946135
11.8957 0.943775
11.8981 0.957655
11.9004 0.96018
11.9028 0.948241
11.9051 0.947569
11.9074 0.969647
11.9098 0.961753
11.9121 0.943795
11.9145 0.947531
11.9168 0.950948
11.9192 0.968832
11.9215 0.952703
11.9239 0.942364
11.9262 0.979336
11.9286 0.996185
11.9309 0.977389
11.9332 0.947784
11.9356 0.916297
11.9379 0.910594
11.9403 0.92738
11.9426 0.928668
11.945 0.915961
11.9473 0.890868
11.9497 0.907284
11.952 0.951044
11.9544 0.948386
11.9567 0.957606
11.959 0.976868
11.9614 0.94586
11.9637 0.911508
11.9661 0.898545
11.9684 0.897684
11.9708 0.902548
11.9731 0.904776
11.9755 0.913036
11.9778 0.932355
11.9802 0.93881
11.9825 0.953991
11.9848 0.963076
11.9872 0.947864
11.9895 0.930849
11.9919 0.947107
11.9942 0.927345
11.9966 0.94354
11.9989 0.941905
12.0013 0.94535
12.0036 0.937641
12.006 0.923048
12.0083 0.937788
12.0106 0.969408
12.013 0.984488
12.0153 0.981226
12.0177 0.958546
12.02 0.928233
12.0224 0.942829
12.0247 0.96762
12.0271 0.950764
12.0294 0.940182
12.0318 0.919341
12.0341 0.946717
12.0364 0.923087
12.0388 0.953918
12.0411 0.977794
12.0435 0.971425
12.0458 0.960261
12.0482 0.946366
12.0505 0.923124
12.0529 0.901793
12.0552 0.901655
12.0576 0.930089
12.0599 0.953326
12.0622 0.936093
12.0646 0.919841
12.0669 0.934003
12.0693 0.918225
12.0716 0.911444
12.074 0.894261
12.0763 0.888615
12.0787 0.892931
12.081 0.90229
12.0833 0.938796
12.0857 0.964926
12.088 0.962567
12.0904 0.956289
12.0927 0.971634
12.0951 0.979216
12.0974 0.944446
12.0998 0.924453
12.1021 0.941769
12.1045 0.935215
12.1068 0.921549
12.1091 0.93952
12.1115 0.948703
12.1138 0.931075
12.1162 0.918075
12.1185 0.971874
12.1209 0.978936
12.1232 0.997415
12.1256 0.990248
12.1279 0.997836
12.1303 0.970727
12.1326 0.973658
12.1349 0.965818
12.1373 0.945653
12.1396 0.961694
12.142 0.969645
12.1443 0.952589
12.1467 0.942487
12.149 0.931235
12.1514 0.937165
12.1537 0.97311
12.1561 0.972252
12.1584 0.948805
12.1607 0.967356
12.1631 0.969135
12.1654 0.98784
12.1678 0.985359
12.1701 0.959214
12.1725 0.941604
12.1748 0.938868
12.1772 0.942688
12.1795 0.952313
12.1819 1.00439
12.1842 1.02491
12.1865 0.992088
12.1889 0.971296
12.1912 0.96734
12.1936 0.967707
12.1959 0.985733
12.1983 0.983397
12.2006 0.984321
12.203 0.995682
12.2053 0.973786
12.2077 0.985823
12.21 0.99453
12.2123 0.961557
12.2147 0.995856
12.217 0.995815
12.2194 1.00877
12.2217 1.01156
12.2241 1.00665
12.2264 0.98334
12.2288 0.954592
12.2311 0.939666
12.2335 0.959309
12.2358 0.9853
12.2381 0.988776
12.2405 0.9882
12.2428 0.993822
12.2452 1.008
12.2475 1.03964
12.2499 1.03158
12.2522 1.03302
12.2546 1.03402
12.2569 1.0003
12.2593 0.976279
12.2616 0.969383
12.2639 0.983669
12.2663 0.997807
12.2686 1.01609
12.271 1.00607
12.2733 0.982919
12.2757 0.995087
12.278 1.01127
12.2804 0.999054
12.2827 0.981433
12.2851 0.978037
12.2874 0.992946
12.2897 1.00326
12.2921 0.981724
12.2944 0.965648
12.2968 0.980318
12.2991 1.011
12.3015 0.995009
12.3038 0.991892
12.3062 1.04231
12.3085 1.00488
12.3109 0.978047
12.3132 1.01165
12.3155 1.00871
12.3179 1.01835
12.3202 1.02149
12.3226 1.00526
12.3249 0.983754
12.3273 0.973219
12.3296 0.999567
12.332 1.04666
12.3343 1.04766
12.3366 1.00378
12.339 0.984313
12.3413 0.989929
12.3437 0.994237
12.346 1.02227
12.3484 1.02258
12.3507 1.0099
12.3531 1.00971
12.3554 1.00431
12.3578 0.992721
12.3601 0.941524
12.3624 0.981063
12.3648 1.01329
12.3671 1.04247
12.3695 1.01871
12.3718 1.03823
12.3742 1.07408
12.3765 1.08763
12.3789 1.07041
12.3812 1.04543
12.3836 1.03308
12.3859 1.02719
12.3882 1.02023
12.3906 1.01374
12.3929 1.02726
12.3953 1.05419
12.3976 1.03828
12.4 1.00941
12.4023 1.01363
12.4047 1.01955
12.407 1.03808
12.4094 1.04624
12.4117 1.02377
12.414 1.03058
12.4164 1.03869
12.4187 1.05612
12.4211 1.00783
12.4234 0.979493
12.4258 0.948299
12.4281 0.923763
12.4305 0.93619
12.4328 0.949909
12.4352 0.95418
12.4375 0.980148
12.4398 1.00241
12.4422 0.996267
12.4445 0.98392
12.4469 0.982135
12.4492 0.989291
12.4516 0.988707
12.4539 0.966114
12.4563 0.95425
12.4586 0.954924
12.461 0.954356
12.4633 0.943692
12.4656 0.936416
12.468 0.969617
12.4703 0.926325
12.4727 0.944349
12.475 0.964149
12.4774 0.951095
12.4797 0.942753
12.4821 0.924969
12.4844 0.942177
12.4868 0.953006
12.4891 0.938084
12.4914 0.924055
12.4938 0.926315
12.4961 0.920524
12.4985 0.923724
12.5008 0.942757
12.5032 0.947513
12.5055 0.948686
12.5079 0.969153
12.5102 0.990623
12.5126 0.979665
12.5149 0.947435
12.5172 0.942673
12.5196 0.933498
12.5219 0.957032
12.5243 0.937259
12.5266 0.942277
12.529 0.953904
12.5313 0.925864
12.5337 0.93957
12.536 0.906333
12.5384 0.898761
12.5407 0.931116
12.543 0.950557
12.5454 0.935976
12.5477 0.957767
12.5501 0.950747
12.5524 0.925014
12.5548 0.909186
12.5571 0.905707
12.5595 0.925832
12.5618 0.934071
12.5642 0.923139
12.5665 0.928442
12.5688 0.928674
12.5712 0.941462
12.5735 0.958152
12.5759 0.946194
12.5782 0.968877
12.5806 1.00017
12.5829 0.962494
12.5853 0.935902
12.5876 0.929929
12.59 0.957993
12.5923 0.973647
12.5946 0.954909
12.597 0.988363
12.5993 0.998489
12.6017 1.00393
12.604 0.958727
12.6064 0.957891
12.6087 0.966779
12.6111 0.973154
12.6134 0.977426
12.6157 0.968506
12.6181 0.954524
12.6204 0.949382
12.6228 0.960319
12.6251 0.957435
12.6275 0.952191
12.6298 0.95798
12.6322 0.941474
12.6345 0.947331
12.6369 0.947672
12.6392 0.958112
12.6415 0.937094
12.6439 0.941507
12.6462 0.961307
12.6486 0.95943
12.6509 0.98583
12.6533 1.00118
12.6556 0.959114
12.658 0.931592
12.6603 0.911451
12.6627 0.870847
12.665 0.868625
12.6673 0.88589
12.6697 0.922483
12.672 0.936888
12.6744 0.961253
12.6767 0.958802
12.6791 0.946124
12.6814 0.929568
12.6838 0.905987
12.6861 0.90485
12.6885 0.911506
12.6908 0.912686
12.6931 0.924666
12.6955 0.939451
12.6978 0.958711
12.7002 0.979496
12.7025 0.966439
12.7049 0.9486
12.7072 0.962269
12.7096 0.962447
12.7119 0.924223
12.7143 0.920002
12.7166 0.910556
12.7189 0.915454
12.7213 0.929954
12.7236 0.950939
12.726 0.966148
12.7283 0.923183
12.7307 0.900367
12.733 0.903649
12.7354 0.931108
12.7377 0.950592
12.7401 0.949293
12.7424 0.935613
12.7447 0.904377
12.7471 0.939148
12.7494 0.964882
12.7518 0.931093
12.7541 0.927001
12.7565 0.941736
12.7588 0.934806
12.7612 0.92847
12.7635 0.93692
12.7659 0.964947
12.7682 0.98595
12.7705 0.954722
12.7729 0.904548
12.7752 0.887449
12.7776 0.899478
12.7799 0.920779
12.7823 0.919911
12.7846 0.924431
12.787 0.931042
12.7893 0.931361
12.7917 0.941154
12.794 0.921951
12.7963 0.930033
12.7987 0.989363
12.801 1.0019
12.8034 1.00035
12.8057 0.981236
12.8081 0.970978
12.8104 0.995245
12.8128 0.988621
12.8151 0.975377
12.8175 0.959128
12.8198 0.982905
12.8221 0.988406
12.8245 1.00414
12.8268 1.01019
12.8292 0.96528
12.8315 0.928632
12.8339 0.934919
12.8362 0.948025
12.8386 0.9469
12.8409 0.951146
12.8433 0.953779
12.8456 0.937289
12.8479 0.940314
12.8503 0.968957
12.8526 0.971311
12.855 0.951272
12.8573 0.938369
12.8597 0.946698
12.862 0.949637
12.8644 0.93989
12.8667 0.954274
12.869 0.969416
12.8714 0.957126
12.8737 0.967253
12.8761 0.97725
12.8784 0.960432
12.8808 0.983962
12.8831 0.99542
12.8855 0.998856
12.8878 0.99656
12.8902 0.993561
12.8925 0.960174
12.8948 0.915817
12.8972 0.954773
12.8995 1.00672
12.9019 0.987585
12.9042 0.970283
12.9066 0.953582
12.9089 0.947399
12.9113 0.950301
12.9136 0.981143
12.916 0.995292
12.9183 0.988845
12.9206 0.984177
12.923 0.969733
12.9253 0.92592
12.9277 0.922969
12.93 0.962724
12.9324 0.98703
12.9347 0.98763
12.9371 0.969211
12.9394 0.956471
12.9418 0.983128
12.9441 1.00673
12.9464 0.987727
12.9488 0.977767
12.9511 0.975295
12.9535 0.995584
12.9558 0.991508
12.9582 1.0182
12.9605 1.00869
12.9629 0.979553
12.9652 0.984974
12.9676 0.983973
12.9699 1.0198
12.9722 1.04741
12.9746 1.03263
12.9769 1.02198
12.9793 1.00408
12.9816 0.944691
12.984 0.960176
12.9863 0.963249
12.9887 0.987983
12.991 0.974689
12.9934 0.955741
12.9957 1.01851
12.998 1.0526
13.0004 1.0508
13.0027 1.02354
13.0051 1.00407
13.0074 0.985764
13.0098 0.963273
13.0121 0.947067
13.0145 0.971324
13.0168 0.985839
13.0192 0.981564
13.0215 0.98286
13.0238 0.979085
13.0262 0.979088
13.0285 0.994638
13.0309 1.0203
13.0332 1.03046
13.0356 1.01459
13.0379 0.988942
13.0403 0.9841
13.0426 0.984569
13.045 0.975046
13.0473 0.992447
13.0496 1.00824
13.052 1.01104
13.0543 1.03062
13.0567 1.04197
13.059 1.03418
13.0614 0.987593
13.0637 0.964131
13.0661 0.972853
13.0684 0.981684
13.0708 0.980208
13.0731 0.980613
13.0754 0.975426
13.0778 0.978227
13.0801 0.986202
13.0825 1.03922
13.0848 1.04309
13.0872 1.02315
13.0895 1.00382
13.0919 1.0033
13.0942 1.03596
13.0966 1.03955
13.0989 0.996265
13.1012 1.06047
13.1036 1.04592
13.1059 1.02888
13.1083 0.989809
13.1106 0.986701
13.113 1.00191
13.1153 1.04921
13.1177 1.06394
13.12 1.04399
13.1223 1.06443
13.1247 1.07991
13.127 1.09814
13.1294 1.10314
13.1317 1.10004
13.1341 1.0821
13.1364 1.06356
13.1388 1.0578
13.1411 1.034
13.1435 1.01085
13.1458 1.01551
13.1481 1.04034
13.1505 1.07275
13.1528 1.07341
13.1552 1.05035
13.1575 1.02995
13.1599 1.04078
13.1622 1.06961
13.1646 1.07841
13.1669 1.07504
13.1693 1.06631
13.1716 1.04409
13.1739 1.0187
13.1763 1.03067
13.1786 1.05754
13.181 1.05448
13.1833 1.06175
13.1857 1.03876
13.188 0.998738
13.1904 0.99707
13.1927 0.998342
13.1951 1.04151
13.1974 1.09437
13.1997 1.05972
13.2021 1.01445
13.2044 1.00848
13.2068 1.0124
13.2091 1.04788
13.2115 1.0814
13.2138 1.06922
13.2162 1.05007
13.2185 1.03866
13.2209 1.03873
13.2232 1.07672
13.2255 1.06267
13.2279 1.04584
13.2302 1.06737
13.2326 1.0353
13.2349 1.04588
13.2373 1.02343
13.2396 0.990731
13.242 0.996107
13.2443 1.02592
13.2467 1.0726
13.249 1.08935
13.2513 1.08421
13.2537 1.11285
13.256 1.04594
13.2584 1.03246
13.2607 1.07454
13.2631 1.0844
13.2654 1.0416
13.2678 1.0082
13.2701 1.03874
13.2725 1.0354
13.2748 1.04377
13.2771 1.05342
13.2795 1.04834
13.2818 1.03461
13.2842 1.02913
13.2865 1.03121
13.2889 1.04176
13.2912 1.02139
13.2936 1.02236
13.2959 1.01779
13.2983 0.999038
13.3006 1.00129
13.3029 1.02806
13.3053 1.04184
13.3076 1.06574
13.31 1.02861
13.3123 0.990706
13.3147 1.0008
13.317 1.00429
13.3194 0.992475
13.3217 0.978012
13.3241 0.975501
13.3264 1.00509
13.3287 1.01978
13.3311 1.00291
13.3334 0.990835
13.3358 0.971799
13.3381 0.942873
13.3405 0.95219
13.3428 0.976069
13.3452 0.960235
13.3475 0.952759
13.3499 0.971852
13.3522 0.989503
13.3545 1.02235
13.3569 1.06425
13.3592 1.05074
13.3616 1.00275
13.3639 0.991725
13.3663 1.01042
13.3686 1.02792
13.371 1.0434
13.3733 1.04327
13.3756 1.03205
13.378 1.00818
13.3803 0.986079
13.3827 0.979607
13.385 0.970051
13.3874 0.996054
13.3897 1.02597
13.3921 1.02958
13.3944 1.00607
13.3968 0.97543
13.3991 0.988363
13.4014 1.0016
13.4038 0.991002
13.4061 0.994188
13.4085 1.00538
13.4108 1.0033
13.4132 1.0046
13.4155 1.01921
13.4179 1.0095
13.4202 1.01369
13.4226 0.991919
13.4249 0.982311
13.4272 0.992383
13.4296 0.972761
13.4319 0.992877
13.4343 1.00084
13.4366 1.00381
13.439 0.996473
13.4413 0.987505
13.4437 1.00811
13.446 0.985741
13.4484 0.984341
13.4507 0.997632
13.453 0.990768
13.4554 0.992956
13.4577 1.00809
13.4601 1.00681
13.4624 1.04203
13.4648 1.03243
13.4671 1.00812
13.4695 0.975869
13.4718 1.0017
13.4742 1.03779
13.4765 1.06902
13.4788 1.09002
13.4812 1.07959
13.4835 1.03545
13.4859 0.99416
13.4882 1.00877
13.4906 1.01628
13.4929 1.00467
13.4953 1.02553
13.4976 1.03221
13.5 1.0475
13.5023 1.00052
13.5046 0.976855
13.507 1.01574
13.5093 1.05261
13.5117 1.04033
13.514 1.03822
13.5164 1.02175
13.5187 1.00955
13.5211 0.992867
13.5234 0.988525
13.5258 1.0355
13.5281 1.07397
13.5304 1.07346
13.5328 1.04217
13.5351 1.02005
13.5375 1.05617
13.5398 1.06823
13.5422 1.01099
13.5445 1.00011
13.5469 1.01676
13.5492 1.05619
13.5516 1.05839
13.5539 1.02541
13.5562 1.03309
13.5586 1.04843
13.5609 1.0344
13.5633 1.02741
13.5656 1.06057
13.568 1.06352
13.5703 1.04059
13.5727 1.02051
13.575 1.01786
13.5774 1.02432
13.5797 1.04207
13.582 1.05853
13.5844 1.07289
13.5867 1.0922
13.5891 1.07824
13.5914 1.02209
13.5938 1.01778
13.5961 1.04992
13.5985 1.08432
13.6008 1.0923
13.6032 1.10228
13.6055 1.06118
13.6078 1.02744
13.6102 0.987562
13.6125 0.962102
13.6149 0.973663
13.6172 1.00136
13.6196 1.0052
13.6219 1.04229
13.6243 1.04614
13.6266 1.03071
13.6289 1.05343
13.6313 1.01967
13.6336 0.998197
13.636 1.02059
13.6383 1.02354
13.6407 1.01488
13.643 0.985516
13.6454 0.995852
13.6477 1.01337
13.6501 1.01198
13.6524 0.994821
13.6547 1.00861
13.6571 1.00181
13.6594 1.02166
13.6618 1.0275
13.6641 1.03168
13.6665 1.01553
13.6688 1.02453
13.6712 1.04253
13.6735 1.0363
13.6759 1.01491
13.6782 1.0217
13.6805 1.02567
13.6829 1.03552
13.6852 1.04346
13.6876 1.02394
13.6899 1.05751
13.6923 1.08072
13.6946 1.041
13.697 1.01195
13.6993 1.02931
13.7017 1.03577
13.704 1.03997
13.7063 1.04952
13.7087 1.04163
13.711 1.00553
13.7134 0.988453
13.7157 0.999798
13.7181 1.00645
13.7204 0.99747
13.7228 1.01483
13.7251 1.02531
13.7275 1.00563
13.7298 0.958949
13.7321 0.95486
13.7345 0.980397
13.7368 0.957701
13.7392 0.964089
13.7415 0.997197
13.7439 1.01594
13.7462 1.01625
13.7486 1.00836
13.7509 0.99701
13.7533 1.00015
13.7556 0.996872
13.7579 0.984358
13.7603 1.00927
13.7626 1.00919
13.765 0.996638
13.7673 0.983117
13.7697 0.96223
13.772 0.981471
13.7744 0.994519
13.7767 0.992453
13.7791 1.0125
13.7814 1.01169
13.7837 1.00582
13.7861 1.00479
13.7884 0.989845
13.7908 0.99951
13.7931 1.02861
13.7955 0.997101
13.7978 1.01611
13.8002 1.0576
13.8025 1.05654
13.8049 1.07487
13.8072 1.05674
13.8095 1.05183
13.8119 1.03246
13.8142 1.01025
13.8166 1.00924
13.8189 1.01345
13.8213 1.0372
13.8236 1.01721
13.826 1.01421
13.8283 1.04216
13.8307 1.04061
13.833 0.995658
13.8353 0.968881
13.8377 1.00782
13.84 0.965232
13.8424 0.987441
13.8447 0.971492
13.8471 1.00763
13.8494 1.04228
13.8518 1.01213
13.8541 0.994302
13.8565 0.997939
13.8588 0.99816
13.8611 1.02203
13.8635 1.03729
13.8658 1.04159
13.8682 1.04258
13.8705 1.05273
13.8729 1.06252
13.8752 1.02824
13.8776 0.989795
13.8799 0.981767
13.8822 0.96705
13.8846 0.978971
13.8869 0.948052
13.8893 0.955631
13.8916 1.00013
13.894 1.01656
13.8963 0.981037
13.8987 0.922119
13.901 0.919219
13.9034 0.936625
13.9057 0.97063
13.908 1.00657
13.9104 1.016
13.9127 1.01141
13.9151 0.970929
13.9174 0.977988
13.9198 1.0168
13.9221 0.998739
13.9245 0.990793
13.9268 1.00763
13.9292 0.991973
13.9315 0.978566
13.9338 0.980243
13.9362 0.972971
13.9385 0.95536
13.9409 0.959454
13.9432 0.988495
13.9456 0.996216
13.9479 0.96368
13.9503 0.9529
13.9526 0.978122
13.955 1.00415
13.9573 0.984405
13.9596 0.983639
13.962 1.00042
13.9643 0.982747
13.9667 1.00739
13.969 1.04772
13.9714 1.00483
13.9737 0.993344
13.9761 0.948726
13.9784 0.954298
13.9808 0.969541
13.9831 0.970816
13.9854 1.01462
13.9878 1.0041
13.9901 0.977029
13.9925 0.99871
13.9948 0.982603
13.9972 0.988412
13.9995 1.02714
14.0019 0.996765
14.0042 0.989149
14.0066 0.967998
14.0089 0.995082
14.0112 1.00152
14.0136 0.972221
14.0159 0.980379
14.0183 1.02842
14.0206 1.04996
14.023 1.03413
14.0253 1.02423
14.0277 1.03112
14.03 1.02294
14.0324 1.02094
14.0347 1.05875
14.037 1.02916
14.0394 1.00058
14.0417 0.99999
14.0441 0.979188
14.0464 0.974338
14.0488 1.01254
14.0511 1.0161
14.0535 1.00849
14.0558 1.02117
14.0582 1.04252
14.0605 1.05924
14.0628 1.06524
14.0652 1.03753
14.0675 1.01875
14.0699 1.00984
14.0722 1.01474
14.0746 1.03351
14.0769 1.03215
14.0793 0.992052
14.0816 1.01555
14.084 1.01889
14.0863 1.03193
14.0886 1.08696
14.091 1.05129
14.0933 1.03503
14.0957 0.989755
14.098 0.981389
14.1004 0.999764
14.1027 1.02382
14.1051 1.03
14.1074 1.03313
14.1098 0.968753
14.1121 0.975876
14.1144 1.00695
14.1168 1.02409
14.1191 1.00977
14.1215 1.0149
14.1238 1.01714
14.1262 0.996222
14.1285 0.996851
14.1309 1.01388
14.1332 1.04017
14.1355 1.01907
14.1379 1.0009
14.1402 1.00727
14.1426 1.02096
14.1449 1.0101
14.1473 1.02117
14.1496 1.02309
14.152 0.98745
14.1543 0.958041
14.1567 0.969049
14.159 0.9909
14.1613 0.995172
14.1637 0.932883
14.166 0.929007
14.1684 0.975202
14.1707 0.999902
14.1731 1.01438
14.1754 1.03131
14.1778 1.00728
14.1801 1.01114
14.1825 1.04639
14.1848 1.08121
14.1871 0.985076
14.1895 0.935946
14.1918 0.994564
14.1942 0.997383
14.1965 0.994985
14.1989 0.991714
14.2012 1.00307
14.2036 0.992138
14.2059 0.98049
14.2083 0.990799
14.2106 1.00249
14.2129 1.01037
14.2153 0.997664
14.2176 1.00518
14.22 1.03257
14.2223 1.05366
14.2247 1.02924
14.227 1.01085
14.2294 1.01617
14.2317 0.995433
14.2341 0.99141
14.2364 0.988607
14.2387 1.0026
14.2411 0.997939
14.2434 1.00079
14.2458 0.968947
14.2481 0.982402
14.2505 1.03343
14.2528 0.998429
14.2552 1.02467
14.2575 1.03952
14.2599 1.02961
14.2622 1.02204
14.2645 1.07157
14.2669 1.05718
14.2692 1.05309
14.2716 1.05452
14.2739 1.02774
14.2763 1.0602
14.2786 1.04392
14.281 1.00701
14.2833 1.00268
14.2857 1.02949
14.288 1.02266
14.2903 0.997769
14.2927 0.990603
14.295 0.990002
14.2974 1.03729
14.2997 1.04711
14.3021 1.02661
14.3044 1.04475
14.3068 1.05974
14.3091 1.06128
14.3115 1.02998
14.3138 1.02832
14.3161 1.04386
14.3185 1.05576
14.3208 1.02123
14.3232 1.01127
14.3255 1.03912
14.3279 1.06717
14.3302 1.08195
14.3326 1.08052
14.3349 1.03095
14.3373 1.00679
14.3396 1.04349
14.3419 1.01016
14.3443 0.989353
14.3466 1.02578
14.349 1.01246
14.3513 1.01038
14.3537 0.998669
14.356 1.02327
14.3584 1.02784
14.3607 1.00778
14.3631 1.0211
14.3654 1.03537
14.3677 1.00956
14.3701 1.01515
14.3724 1.01013
14.3748 1.01963
14.3771 0.989954
14.3795 0.947795
14.3818 1.00111
14.3842 0.999385
14.3865 0.95722
14.3888 0.974242
14.3912 0.967174
14.3935 0.984163
14.3959 1.0102
14.3982 1.00633
14.4006 0.987129
14.4029 1.01769
14.4053 1.04063
14.4076 1.03807
14.41 1.03941
14.4123 0.968603
14.4146 0.970926
14.417 0.974573
14.4193 0.971339
14.4217 0.977193
14.424 0.999993
14.4264 1.00237
14.4287 0.979942
14.4311 0.965166
14.4334 0.971323
14.4358 0.985738
14.4381 1.00334
14.4404 1.03032
14.4428 0.99154
14.4451 0.976761
14.4475 0.984503
14.4498 0.980508
14.4522 0.966808
14.4545 0.975396
14.4569 0.996682
14.4592 0.979716
14.4616 0.978658
14.4639 1.01911
14.4662 0.997759
14.4686 1.00691
14.4709 1.01277
14.4733 0.981278
14.4756 0.978194
14.478 1.01494
14.4803 1.02488
14.4827 1.01795
14.485 1.03007
14.4874 1.01959
14.4897 0.999217
14.492 0.987253
14.4944 0.958878
14.4967 0.974893
14.4991 0.989983
14.5014 0.971487
14.5038 0.954265
14.5061 0.931645
14.5085 0.973951
14.5108 1.00849
14.5132 1.00493
14.5155 0.951408
14.5178 0.96546
14.5202 0.98507
14.5225 0.998865
14.5249 0.994492
14.5272 0.986784
14.5296 0.980639
14.5319 0.989571
14.5343 0.986169
14.5366 0.96972
14.539 0.967589
14.5413 0.963846
14.5436 0.961994
14.546 0.959746
14.5483 0.950385
14.5507 0.928458
14.553 0.932002
14.5554 0.960016
14.5577 0.973173
14.5601 0.934237
14.5624 0.954922
14.5648 0.961887
14.5671 0.953707
14.5694 0.933202
14.5718 0.933242
14.5741 0.942076
14.5765 0.933814
14.5788 0.946932
14.5812 0.984909
14.5835 0.985962
14.5859 0.958165
14.5882 0.935156
14.5906 0.944625
14.5929 0.972893
14.5952 0.997883
14.5976 0.982235
14.5999 0.954792
14.6023 0.93921
14.6046 0.930182
14.607 0.940889
14.6093 0.944924
14.6117 0.998454
14.614 0.992905
14.6164 0.959747
14.6187 0.962562
14.621 0.966231
14.6234 0.955364
14.6257 0.96513
14.6281 0.986041
14.6304 0.96865
14.6328 0.944088
14.6351 0.964952
14.6375 0.960969
14.6398 0.952511
14.6421 0.964602
14.6445 0.898924
14.6468 0.924039
14.6492 0.956526
14.6515 0.955795
14.6539 0.96105
14.6562 0.950555
14.6586 0.939147
14.6609 0.964571
14.6633 0.985709
14.6656 0.945028
14.6679 0.94543
14.6703 0.97421
14.6726 0.982144
14.675 0.988481
14.6773 0.977965
14.6797 0.988928
14.682 0.982485
14.6844 0.940516
14.6867 0.945939
14.6891 0.989617
14.6914 0.985706
14.6937 0.9557
14.6961 0.955255
14.6984 0.930564
14.7008 0.906034
14.7031 0.932135
14.7055 0.977058
14.7078 0.948931
14.7102 0.94833
14.7125 0.967287
14.7149 0.976143
14.7172 1.00622
14.7195 1.00243
14.7219 0.979321
14.7242 0.955543
14.7266 0.979471
14.7289 0.957267
14.7313 0.928544
14.7336 0.972497
14.736 0.965131
14.7383 1.02056
14.7407 1.02778
14.743 1.00158
14.7453 0.996887
14.7477 0.96146
14.75 0.94361
14.7524 0.924034
14.7547 0.913022
14.7571 0.945637
14.7594 0.985276
14.7618 0.992566
14.7641 0.957993
14.7665 0.936348
14.7688 0.964622
14.7711 0.943043
14.7735 0.970346
14.7758 0.971066
14.7782 0.996275
14.7805 0.992587
14.7829 0.996136
14.7852 0.980859
14.7876 0.995273
14.7899 0.990601
14.7923 1.01238
14.7946 0.999793
14.7969 1.00381
14.7993 1.00398
14.8016 1.01107
14.804 0.999405
14.8063 0.987647
14.8087 0.949942
14.811 0.985358
14.8134 1.01023
14.8157 0.969405
14.8181 0.979337
14.8204 0.982387
14.8227 0.948055
14.8251 0.958677
14.8274 0.970962
14.8298 0.992132
14.8321 0.980475
14.8345 0.967526
14.8368 0.971934
14.8392 0.959007
14.8415 0.960275
14.8439 0.97468
14.8462 0.950811
14.8485 1.00379
14.8509 0.984161
14.8532 1.00302
14.8556 1.01304
14.8579 1.00505
14.8603 0.980244
14.8626 0.992074
14.865 1.0182
14.8673 0.993071
14.8697 0.974278
14.872 0.95653
14.8743 0.924811
14.8767 0.931343
14.879 0.9388
14.8814 0.93791
14.8837 0.930099
14.8861 0.926791
14.8884 0.97727
14.8908 1.03281
14.8931 1.04863
14.8954 0.974391
14.8978 0.947869
14.9001 0.923019
14.9025 0.916054
14.9048 0.927263
14.9072 0.926745
14.9095 0.94394
14.9119 0.946403
14.9142 0.937321
14.9166 0.941362
14.9189 0.980167
14.9212 0.967818
14.9236 0.907411
14.9259 0.890901
14.9283 0.899564
14.9306 0.938672
14.933 0.971295
14.9353 0.990036
14.9377 1.01089
14.94 1.03911
14.9424 1.04763
14.9447 1.02451
14.947 0.99197
14.9494 0.957089
14.9517 0.951275
14.9541 0.982007
14.9564 0.976928
14.9588 0.996319
14.9611 1.01015
14.9635 1.02428
14.9658 1.00699
14.9682 0.973863
14.9705 0.960717
14.9728 0.946017
14.9752 0.954106
14.9775 0.987983
14.9799 0.96307
14.9822 0.934377
14.9846 0.94915
14.9869 1.0021
14.9893 1.02222
14.9916 0.993861
14.994 0.971961
14.9963 0.988536
14.9986 0.989873
